Mass 1: 5.044511E12 kg
Diameter 1: 8.0912695 m
Mass 2: 4.968899E12 kg
Diameter 2: 8.010815 m

Time (s)	Distance (m)	Gravitational Force (MN)
0.02		311.78		16930.52
0.04		311.78		16930.59
0.06		311.78		16930.70
0.06		311.78		16930.81
0.07		311.78		16930.93
0.08		311.78		16931.06
0.09		311.77		16931.20
0.09		311.77		16931.35
0.10		311.77		16931.50
0.11		311.77		16931.67
0.12		311.77		16931.84
0.13		311.77		16932.02
0.14		311.77		16932.22
0.14		311.76		16932.42
0.15		311.76		16932.62
0.16		311.76		16932.84
0.17		311.76		16933.07
0.18		311.76		16933.31
0.18		311.75		16933.55
0.19		311.75		16933.81
0.20		311.75		16934.07
0.21		311.75		16934.35
0.22		311.74		16934.63
0.23		311.74		16934.93
0.23		311.74		16935.23
0.24		311.73		16935.56
0.25		311.73		16935.88
0.26		311.73		16936.23
0.26		311.73		16936.59
0.28		311.72		16936.96
0.28		311.72		16937.34
0.29		311.71		16937.75
0.30		311.71		16938.16
0.31		311.71		16938.59
0.32		311.70		16939.02
0.33		311.70		16939.46
0.34		311.69		16939.91
0.34		311.69		16940.37
0.35		311.69		16940.84
0.36		311.68		16941.32
0.37		311.68		16941.80
0.38		311.67		16942.29
0.39		311.67		16942.80
0.39		311.66		16943.31
0.40		311.66		16943.84
0.41		311.65		16944.37
0.42		311.65		16944.91
0.42		311.64		16945.46
0.44		311.64		16946.03
0.44		311.63		16946.60
0.45		311.63		16947.19
0.46		311.62		16947.78
0.47		311.62		16948.40
0.47		311.61		16949.01
0.49		311.60		16949.66
0.49		311.60		16950.30
0.50		311.59		16950.97
0.51		311.59		16951.65
0.52		311.58		16952.34
0.53		311.57		16953.04
0.54		311.57		16953.75
0.54		311.56		16954.47
0.55		311.55		16955.19
0.56		311.55		16955.93
0.57		311.54		16956.67
0.58		311.53		16957.43
0.58		311.53		16958.19
0.59		311.52		16958.98
0.60		311.51		16959.76
0.61		311.50		16960.57
0.62		311.50		16961.38
0.63		311.49		16962.21
0.63		311.48		16963.04
0.64		311.47		16963.90
0.65		311.47		16964.75
0.66		311.46		16965.64
0.66		311.45		16966.52
0.68		311.44		16967.44
0.68		311.43		16968.35
0.69		311.42		16969.29
0.70		311.42		16970.24
0.71		311.41		16971.22
0.72		311.40		16972.20
0.73		311.39		16973.20
0.74		311.38		16974.21
0.74		311.37		16975.22
0.75		311.36		16976.25
0.76		311.35		16977.28
0.77		311.34		16978.33
0.78		311.33		16979.38
0.79		311.32		16980.45
0.79		311.31		16981.52
0.80		311.30		16982.61
0.81		311.29		16983.70
0.82		311.28		16984.81
0.82		311.27		16985.92
0.84		311.26		16987.06
0.84		311.25		16988.19
0.85		311.24		16989.35
0.86		311.23		16990.51
0.87		311.22		16991.70
0.87		311.21		16992.88
0.89		311.20		16994.10
0.89		311.19		16995.31
0.90		311.17		16996.56
0.90		311.16		16997.80
0.92		311.15		16999.08
0.93		311.14		17000.36
0.94		311.13		17001.66
0.94		311.12		17002.96
0.95		311.10		17004.27
0.96		311.09		17005.60
0.97		311.08		17006.93
0.98		311.07		17008.27
0.98		311.06		17009.62
0.99		311.04		17010.98
1.00		311.03		17012.35
1.01		311.02		17013.74
1.02		311.00		17015.13
1.03		310.99		17016.53
1.03		310.98		17017.94
1.04		310.97		17019.37
1.05		310.95		17020.81
1.06		310.94		17022.26
1.06		310.93		17023.72
1.08		310.91		17025.21
1.08		310.90		17026.69
1.09		310.89		17028.21
1.10		310.87		17029.72
1.11		310.86		17031.27
1.12		310.84		17032.82
1.13		310.83		17034.39
1.14		310.81		17035.96
1.14		310.80		17037.55
1.15		310.79		17039.14
1.16		310.77		17040.74
1.17		310.76		17042.36
1.18		310.74		17043.98
1.19		310.73		17045.61
1.19		310.71		17047.25
1.20		310.70		17048.91
1.21		310.68		17050.57
1.22		310.67		17052.24
1.22		310.65		17053.92
1.24		310.64		17055.63
1.24		310.62		17057.33
1.25		310.60		17059.06
1.26		310.59		17060.79
1.27		310.57		17062.54
1.27		310.56		17064.30
1.29		310.54		17066.08
1.29		310.52		17067.87
1.30		310.51		17069.68
1.30		310.49		17071.50
1.32		310.47		17073.34
1.33		310.46		17075.20
1.34		310.44		17077.07
1.34		310.42		17078.94
1.35		310.41		17080.83
1.36		310.39		17082.73
1.37		310.37		17084.63
1.38		310.35		17086.55
1.38		310.34		17088.48
1.39		310.32		17090.42
1.40		310.30		17092.36
1.41		310.28		17094.33
1.42		310.27		17096.29
1.43		310.25		17098.28
1.43		310.23		17100.27
1.44		310.21		17102.28
1.45		310.19		17104.29
1.46		310.17		17106.33
1.46		310.16		17108.37
1.48		310.14		17110.44
1.48		310.12		17112.51
1.49		310.10		17114.61
1.50		310.08		17116.71
1.51		310.06		17118.85
1.52		310.04		17121.00
1.53		310.02		17123.16
1.54		310.00		17125.33
1.54		309.98		17127.51
1.55		309.96		17129.70
1.56		309.94		17131.90
1.57		309.92		17134.12
1.58		309.90		17136.34
1.59		309.88		17138.58
1.59		309.86		17140.82
1.60		309.84		17143.08
1.61		309.82		17145.34
1.62		309.80		17147.62
1.62		309.78		17149.91
1.64		309.76		17152.22
1.64		309.74		17154.53
1.65		309.72		17156.86
1.66		309.70		17159.19
1.67		309.68		17161.54
1.67		309.65		17163.90
1.69		309.63		17166.28
1.69		309.61		17168.66
1.70		309.59		17171.07
1.70		309.57		17173.48
1.72		309.55		17175.91
1.73		309.52		17178.36
1.74		309.50		17180.81
1.74		309.48		17183.27
1.75		309.46		17185.74
1.76		309.43		17188.22
1.77		309.41		17190.70
1.78		309.39		17193.20
1.78		309.37		17195.70
1.79		309.34		17198.21
1.80		309.32		17200.73
1.81		309.30		17203.27
1.82		309.28		17205.80
1.83		309.25		17208.36
1.83		309.23		17210.92
1.84		309.21		17213.50
1.85		309.18		17216.08
1.86		309.16		17218.68
1.86		309.14		17221.28
1.88		309.11		17223.91
1.88		309.09		17226.53
1.89		309.07		17229.19
1.90		309.04		17231.84
1.91		309.02		17234.52
1.91		308.99		17237.20
1.93		308.97		17239.92
1.94		308.95		17242.64
1.94		308.92		17245.37
1.95		308.90		17248.11
1.96		308.87		17250.86
1.97		308.85		17253.63
1.98		308.82		17256.39
1.99		308.80		17259.17
1.99		308.77		17261.96
2.00		308.75		17264.76
2.01		308.72		17267.57
2.02		308.70		17270.39
2.02		308.67		17273.22
2.04		308.65		17276.06
2.04		308.62		17278.90
2.05		308.60		17281.77
2.06		308.57		17284.64
2.07		308.54		17287.54
2.07		308.52		17290.43
2.09		308.49		17293.35
2.09		308.47		17296.28
2.10		308.44		17299.23
2.11		308.41		17302.20
2.12		308.39		17305.17
2.13		308.36		17308.15
2.14		308.33		17311.15
2.14		308.31		17314.15
2.15		308.28		17317.16
2.16		308.25		17320.18
2.17		308.23		17323.21
2.18		308.20		17326.25
2.18		308.17		17329.30
2.19		308.15		17332.37
2.20		308.12		17335.44
2.21		308.09		17338.52
2.22		308.06		17341.61
2.23		308.04		17344.72
2.23		308.01		17347.84
2.24		307.98		17350.97
2.25		307.95		17354.11
2.26		307.92		17357.27
2.26		307.90		17360.43
2.28		307.87		17363.62
2.28		307.84		17366.81
2.29		307.81		17370.03
2.30		307.78		17373.25
2.31		307.75		17376.49
2.31		307.73		17379.75
2.33		307.70		17383.03
2.34		307.67		17386.32
2.34		307.64		17389.62
2.35		307.61		17392.93
2.36		307.58		17396.25
2.37		307.55		17399.59
2.38		307.52		17402.93
2.39		307.49		17406.28
2.39		307.46		17409.64
2.40		307.43		17413.02
2.41		307.40		17416.40
2.42		307.37		17419.80
2.42		307.34		17423.20
2.44		307.31		17426.62
2.44		307.28		17430.05
2.45		307.25		17433.50
2.46		307.22		17436.95
2.47		307.19		17440.43
2.47		307.16		17443.90
2.49		307.13		17447.41
2.49		307.10		17450.92
2.50		307.07		17454.45
2.50		307.03		17457.99
2.52		307.00		17461.56
2.53		306.97		17465.14
2.54		306.94		17468.73
2.54		306.91		17472.34
2.55		306.88		17475.94
2.56		306.85		17479.57
2.57		306.81		17483.20
2.58		306.78		17486.84
2.58		306.75		17490.49
2.59		306.72		17494.15
2.60		306.69		17497.83
2.61		306.65		17501.51
2.62		306.62		17505.21
2.63		306.59		17508.92
2.63		306.56		17512.64
2.64		306.52		17516.38
2.65		306.49		17520.12
2.66		306.46		17523.89
2.66		306.42		17527.66
2.68		306.39		17531.46
2.68		306.36		17535.26
2.69		306.32		17539.08
2.70		306.29		17542.91
2.71		306.26		17546.77
2.71		306.22		17550.63
2.73		306.19		17554.53
2.74		306.16		17558.44
2.74		306.12		17562.35
2.75		306.09		17566.28
2.76		306.05		17570.21
2.77		306.02		17574.16
2.78		305.98		17578.12
2.79		305.95		17582.09
2.79		305.91		17586.06
2.80		305.88		17590.06
2.81		305.85		17594.05
2.82		305.81		17598.07
2.82		305.78		17602.09
2.84		305.74		17606.14
2.84		305.71		17610.18
2.85		305.67		17614.25
2.86		305.63		17618.33
2.87		305.60		17622.43
2.87		305.56		17626.53
2.89		305.53		17630.66
2.89		305.49		17634.79
2.90		305.46		17638.96
2.91		305.42		17643.13
2.92		305.38		17647.32
2.93		305.35		17651.52
2.94		305.31		17655.72
2.94		305.27		17659.94
2.95		305.24		17664.17
2.96		305.20		17668.41
2.97		305.16		17672.66
2.98		305.13		17676.92
2.98		305.09		17681.19
2.99		305.05		17685.47
3.00		305.02		17689.77
3.01		304.98		17694.07
3.02		304.94		17698.39
3.03		304.91		17702.72
3.03		304.87		17707.06
3.04		304.83		17711.43
3.05		304.79		17715.79
3.06		304.75		17720.18
3.06		304.72		17724.57
3.08		304.68		17729.00
3.08		304.64		17733.42
3.09		304.60		17737.87
3.10		304.56		17742.33
3.11		304.53		17746.82
3.11		304.49		17751.31
3.13		304.45		17755.83
3.14		304.41		17760.37
3.14		304.37		17764.91
3.15		304.33		17769.47
3.16		304.29		17774.04
3.17		304.25		17778.62
3.18		304.21		17783.21
3.19		304.17		17787.81
3.19		304.14		17792.42
3.20		304.10		17797.05
3.21		304.06		17801.68
3.22		304.02		17806.33
3.22		303.98		17810.99
3.24		303.94		17815.67
3.24		303.90		17820.35
3.25		303.86		17825.06
3.26		303.82		17829.77
3.27		303.78		17834.50
3.27		303.74		17839.24
3.29		303.70		17844.01
3.29		303.65		17848.79
3.30		303.61		17853.59
3.31		303.57		17858.41
3.32		303.53		17863.23
3.33		303.49		17868.07
3.34		303.45		17872.92
3.34		303.41		17877.79
3.35		303.37		17882.66
3.36		303.33		17887.54
3.37		303.28		17892.43
3.38		303.24		17897.34
3.38		303.20		17902.26
3.39		303.16		17907.19
3.40		303.12		17912.13
3.41		303.08		17917.08
3.42		303.03		17922.05
3.43		302.99		17927.03
3.43		302.95		17932.02
3.44		302.91		17937.03
3.45		302.86		17942.05
3.46		302.82		17947.09
3.46		302.78		17952.13
3.48		302.74		17957.20
3.48		302.69		17962.28
3.49		302.65		17967.39
3.50		302.61		17972.49
3.51		302.56		17977.64
3.51		302.52		17982.78
3.53		302.48		17987.96
3.54		302.43		17993.16
3.54		302.39		17998.36
3.55		302.35		18003.58
3.56		302.30		18008.80
3.57		302.26		18014.04
3.58		302.21		18019.29
3.59		302.17		18024.56
3.59		302.13		18029.83
3.60		302.08		18035.12
3.61		302.04		18040.41
3.62		301.99		18045.73
3.62		301.95		18051.05
3.64		301.90		18056.39
3.64		301.86		18061.74
3.65		301.81		18067.11
3.66		301.77		18072.49
3.67		301.72		18077.89
3.67		301.68		18083.30
3.69		301.63		18088.74
3.69		301.59		18094.18
3.70		301.54		18099.66
3.71		301.50		18105.15
3.72		301.45		18110.65
3.73		301.41		18116.16
3.74		301.36		18121.69
3.74		301.31		18127.23
3.75		301.27		18132.78
3.76		301.22		18138.34
3.77		301.18		18143.91
3.78		301.13		18149.50
3.78		301.08		18155.10
3.79		301.04		18160.71
3.80		300.99		18166.33
3.81		300.94		18171.97
3.82		300.90		18177.62
3.83		300.85		18183.29
3.83		300.80		18188.97
3.84		300.75		18194.67
3.85		300.71		18200.37
3.86		300.66		18206.10
3.86		300.61		18211.84
3.88		300.57		18217.61
3.88		300.52		18223.38
3.89		300.47		18229.18
3.90		300.42		18234.98
3.91		300.37		18240.82
3.92		300.33		18246.68
3.93		300.28		18252.54
3.94		300.23		18258.42
3.94		300.18		18264.31
3.95		300.13		18270.22
3.96		300.08		18276.13
3.97		300.04		18282.07
3.98		299.99		18288.01
3.99		299.94		18293.96
3.99		299.89		18299.93
4.00		299.84		18305.92
4.01		299.79		18311.91
4.02		299.74		18317.93
4.02		299.69		18323.95
4.04		299.64		18329.99
4.04		299.59		18336.05
4.05		299.54		18342.13
4.06		299.49		18348.21
4.07		299.44		18354.32
4.07		299.39		18360.44
4.09		299.34		18366.60
4.09		299.29		18372.75
4.10		299.24		18378.94
4.10		299.19		18385.14
4.12		299.14		18391.37
4.13		299.09		18397.62
4.14		299.04		18403.88
4.14		298.99		18410.16
4.15		298.94		18416.45
4.16		298.89		18422.75
4.17		298.84		18429.06
4.18		298.78		18435.39
4.18		298.73		18441.73
4.19		298.68		18448.10
4.20		298.63		18454.46
4.21		298.58		18460.86
4.22		298.53		18467.25
4.23		298.48		18473.68
4.23		298.42		18480.11
4.24		298.37		18486.57
4.25		298.32		18493.03
4.26		298.27		18499.53
4.26		298.21		18506.02
4.28		298.16		18512.56
4.28		298.11		18519.10
4.29		298.06		18525.67
4.30		298.00		18532.25
4.31		297.95		18538.87
4.32		297.90		18545.50
4.33		297.84		18552.15
4.34		297.79		18558.81
4.34		297.74		18565.48
4.35		297.68		18572.18
4.36		297.63		18578.88
4.37		297.57		18585.60
4.38		297.52		18592.33
4.39		297.47		18599.09
4.39		297.41		18605.85
4.40		297.36		18612.63
4.41		297.30		18619.43
4.42		297.25		18626.25
4.42		297.20		18633.07
4.44		297.14		18639.93
4.44		297.09		18646.79
4.45		297.03		18653.69
4.46		296.98		18660.58
4.47		296.92		18667.52
4.47		296.87		18674.46
4.49		296.81		18681.43
4.49		296.76		18688.41
4.50		296.70		18695.43
4.50		296.64		18702.46
4.52		296.59		18709.53
4.53		296.53		18716.61
4.54		296.48		18723.71
4.54		296.42		18730.83
4.55		296.36		18737.96
4.56		296.31		18745.11
4.57		296.25		18752.27
4.58		296.19		18759.46
4.58		296.14		18766.65
4.59		296.08		18773.86
4.60		296.02		18781.09
4.61		295.97		18788.34
4.62		295.91		18795.60
4.63		295.85		18802.89
4.63		295.79		18810.19
4.64		295.74		18817.51
4.65		295.68		18824.85
4.66		295.62		18832.22
4.66		295.56		18839.59
4.68		295.50		18847.01
4.68		295.45		18854.42
4.69		295.39		18861.89
4.70		295.33		18869.35
4.71		295.27		18876.87
4.72		295.21		18884.40
4.73		295.15		18891.94
4.74		295.09		18899.51
4.74		295.03		18907.09
4.75		294.97		18914.68
4.76		294.92		18922.30
4.77		294.86		18929.93
4.78		294.80		18937.58
4.79		294.74		18945.25
4.79		294.68		18952.92
4.80		294.62		18960.63
4.81		294.56		18968.35
4.82		294.50		18976.09
4.82		294.44		18983.85
4.84		294.38		18991.64
4.84		294.32		18999.43
4.85		294.26		19007.26
4.86		294.20		19015.10
4.87		294.13		19022.98
4.87		294.07		19030.87
4.89		294.01		19038.80
4.89		293.95		19046.74
4.90		293.89		19054.72
4.90		293.83		19062.72
4.92		293.77		19070.76
4.93		293.70		19078.82
4.94		293.64		19086.90
4.94		293.58		19095.00
4.95		293.52		19103.12
4.96		293.45		19111.26
4.97		293.39		19119.41
4.98		293.33		19127.59
4.98		293.27		19135.78
4.99		293.20		19144.00
5.00		293.14		19152.23
5.01		293.08		19160.49
5.02		293.01		19168.76
5.03		292.95		19177.07
5.03		292.89		19185.39
5.04		292.82		19193.74
5.05		292.76		19202.11
5.06		292.69		19210.52
5.06		292.63		19218.94
5.08		292.57		19227.40
5.08		292.50		19235.88
5.09		292.44		19244.40
5.10		292.37		19252.93
5.11		292.31		19261.52
5.12		292.24		19270.13
5.13		292.18		19278.77
5.14		292.11		19287.42
5.14		292.05		19296.10
5.15		291.98		19304.80
5.16		291.91		19313.52
5.17		291.85		19322.27
5.18		291.78		19331.03
5.19		291.71		19339.82
5.19		291.65		19348.63
5.20		291.58		19357.48
5.21		291.51		19366.34
5.22		291.45		19375.24
5.22		291.38		19384.16
5.24		291.31		19392.94
5.24		291.25		19401.28
5.25		291.19		19409.20
5.26		291.14		19416.83
5.27		291.08		19424.42
5.27		291.02		19432.01
5.29		290.96		19439.67
5.29		290.91		19447.33
5.30		290.85		19455.06
5.30		290.79		19462.80
5.32		290.73		19470.61
5.33		290.67		19478.45
5.34		290.62		19486.31
5.34		290.56		19494.20
5.35		290.50		19502.11
5.36		290.44		19510.06
5.37		290.38		19518.02
5.38		290.32		19526.01
5.38		290.26		19534.02
5.39		290.20		19542.07
5.40		290.14		19550.13
5.41		290.08		19558.24
5.42		290.02		19566.36
5.43		289.96		19574.53
5.43		289.90		19582.71
5.44		289.84		19590.94
5.45		289.78		19599.19
5.46		289.72		19607.50
5.46		289.66		19615.81
5.48		289.59		19624.20
5.48		289.53		19632.60
5.49		289.47		19641.08
5.50		289.41		19649.56
5.51		289.34		19658.13
5.52		289.28		19666.73
5.53		289.22		19675.36
5.54		289.15		19684.02
5.54		289.09		19692.71
5.55		289.03		19701.43
5.56		288.96		19710.18
5.57		288.90		19718.97
5.58		288.83		19727.78
5.59		288.77		19736.64
5.59		288.70		19745.52
5.60		288.64		19754.45
5.61		288.57		19763.39
5.62		288.51		19772.40
5.62		288.44		19781.42
5.64		288.37		19790.50
5.64		288.31		19799.60
5.65		288.24		19808.78
5.66		288.17		19817.96
5.67		288.11		19827.23
5.67		288.04		19836.50
5.69		287.97		19845.86
5.69		287.90		19855.23
5.70		287.84		19864.70
5.70		287.77		19874.17
5.72		287.70		19883.75
5.73		287.63		19893.36
5.74		287.56		19903.00
5.74		287.49		19912.68
5.75		287.42		19922.39
5.76		287.35		19932.14
5.77		287.28		19941.91
5.78		287.21		19951.73
5.78		287.14		19961.57
5.79		287.06		19971.46
5.80		286.99		19981.36
5.81		286.92		19991.33
5.82		286.85		20001.30
5.83		286.78		20011.34
5.83		286.71		20021.38
5.84		286.63		20031.49
5.85		286.56		20041.61
5.86		286.49		20051.80
5.86		286.42		20062.00
5.88		286.34		20072.28
5.88		286.27		20082.56
5.89		286.20		20092.92
5.90		286.12		20103.29
5.91		286.05		20113.67
5.91		285.98		20123.87
5.93		285.90		20133.93
5.94		285.83		20143.87
5.94		285.76		20153.79
5.95		285.69		20163.73
5.96		285.62		20173.71
5.97		285.55		20183.71
5.98		285.48		20193.74
5.99		285.41		20203.81
5.99		285.34		20213.90
6.00		285.27		20224.04
6.01		285.19		20234.19
6.02		285.12		20244.39
6.02		285.05		20254.60
6.04		284.98		20264.88
6.04		284.91		20275.16
6.05		284.83		20285.51
6.06		284.76		20295.87
6.07		284.69		20306.30
6.08		284.61		20316.82
6.09		284.54		20327.35
6.10		284.47		20337.96
6.11		284.39		20348.60
6.12		284.32		20359.28
6.13		284.24		20369.99
6.14		284.17		20380.73
6.14		284.09		20391.50
6.15		284.02		20402.25
6.16		283.94		20412.95
6.17		283.87		20423.61
6.18		283.80		20434.25
6.18		283.72		20444.91
6.19		283.65		20455.62
6.20		283.57		20466.34
6.21		283.50		20477.12
6.22		283.42		20487.92
6.23		283.35		20498.77
6.23		283.27		20509.65
6.24		283.20		20520.57
6.25		283.12		20531.49
6.26		283.05		20542.45
6.26		282.97		20553.40
6.28		282.90		20564.40
6.28		282.82		20575.40
6.29		282.74		20586.47
6.30		282.67		20597.53
6.31		282.59		20608.68
6.31		282.52		20619.81
6.33		282.44		20631.02
6.34		282.36		20642.24
6.34		282.29		20653.48
6.35		282.21		20664.74
6.36		282.13		20676.02
6.37		282.05		20687.34
6.38		281.98		20698.67
6.39		281.90		20710.05
6.39		281.82		20721.43
6.40		281.74		20732.86
6.41		281.67		20744.29
6.42		281.59		20755.77
6.42		281.51		20767.25
6.44		281.43		20778.78
6.44		281.35		20790.32
6.45		281.28		20801.92
6.46		281.20		20813.52
6.47		281.12		20825.18
6.47		281.04		20836.83
6.49		280.96		20848.56
6.49		280.88		20860.28
6.50		280.80		20872.09
6.51		280.72		20883.90
6.52		280.64		20895.74
6.52		280.56		20907.57
6.54		280.48		20919.50
6.54		280.40		20931.45
6.55		280.32		20943.41
6.56		280.24		20955.40
6.57		280.16		20967.41
6.58		280.08		20979.46
6.58		280.00		20991.53
6.59		279.92		21003.64
6.60		279.84		21015.77
6.61		279.76		21027.94
6.62		279.68		21040.12
6.63		279.60		21052.36
6.63		279.52		21064.59
6.64		279.44		21076.89
6.65		279.35		21089.19
6.66		279.27		21101.55
6.66		279.19		21113.92
6.68		279.11		21126.36
6.68		279.03		21138.79
6.69		278.94		21151.31
6.70		278.86		21163.82
6.71		278.78		21176.42
6.71		278.70		21189.01
6.73		278.61		21201.68
6.74		278.53		21214.38
6.74		278.45		21227.09
6.75		278.36		21239.84
6.76		278.28		21252.61
6.77		278.19		21265.43
6.78		278.11		21278.26
6.79		278.03		21291.15
6.79		277.94		21304.04
6.80		277.86		21316.99
6.81		277.77		21329.95
6.82		277.69		21342.96
6.82		277.60		21355.98
6.84		277.52		21369.06
6.84		277.43		21382.14
6.85		277.35		21395.29
6.86		277.26		21408.45
6.87		277.18		21421.68
6.87		277.09		21434.91
6.89		277.01		21448.23
6.89		276.92		21461.54
6.90		276.83		21474.94
6.90		276.75		21488.33
6.92		276.66		21501.82
6.93		276.57		21515.33
6.94		276.49		21528.86
6.94		276.40		21542.42
6.95		276.31		21556.02
6.96		276.23		21569.65
6.97		276.14		21583.32
6.98		276.05		21597.03
6.98		275.96		21610.76
6.99		275.87		21624.55
7.00		275.79		21638.34
7.01		275.70		21652.19
7.02		275.61		21666.05
7.03		275.52		21679.98
7.03		275.43		21693.91
7.04		275.34		21707.91
7.05		275.26		21721.92
7.06		275.17		21736.01
7.06		275.08		21750.10
7.08		274.99		21764.27
7.08		274.90		21778.44
7.09		274.81		21792.71
7.10		274.72		21806.98
7.11		274.63		21821.35
7.12		274.54		21835.74
7.13		274.45		21850.16
7.14		274.36		21864.61
7.14		274.26		21879.09
7.15		274.17		21893.63
7.16		274.08		21908.19
7.17		273.99		21922.81
7.18		273.90		21937.45
7.19		273.81		21952.14
7.19		273.72		21966.84
7.20		273.62		21981.61
7.21		273.53		21996.39
7.22		273.44		22011.23
7.22		273.35		22026.09
7.24		273.26		22041.02
7.24		273.16		22055.97
7.25		273.07		22070.99
7.26		272.98		22086.02
7.27		272.88		22101.14
7.27		272.79		22116.25
7.29		272.70		22131.48
7.29		272.60		22146.69
7.30		272.51		22162.02
7.30		272.41		22177.33
7.32		272.32		22192.77
7.33		272.22		22208.23
7.34		272.13		22223.72
7.34		272.03		22239.25
7.35		271.94		22254.82
7.36		271.84		22270.44
7.37		271.75		22286.09
7.38		271.65		22301.80
7.38		271.56		22317.54
7.39		271.46		22333.34
7.40		271.37		22349.15
7.41		271.27		22365.03
7.42		271.17		22380.93
7.43		271.08		22396.91
7.43		270.98		22412.89
7.44		270.88		22428.96
7.45		270.78		22445.04
7.46		270.69		22461.21
7.46		270.59		22477.37
7.48		270.49		22493.66
7.48		270.39		22509.94
7.49		270.30		22526.34
7.50		270.20		22542.73
7.51		270.10		22559.25
7.52		270.00		22575.80
7.53		269.90		22592.39
7.54		269.80		22609.02
7.54		269.70		22625.68
7.55		269.60		22642.41
7.56		269.50		22659.18
7.57		269.40		22676.02
7.58		269.30		22692.88
7.59		269.20		22709.81
7.59		269.10		22726.76
7.60		269.00		22743.79
7.61		268.90		22760.83
7.62		268.80		22777.96
7.62		268.70		22795.10
7.64		268.60		22812.34
7.64		268.49		22829.59
7.65		268.39		22846.94
7.66		268.29		22864.29
7.67		268.19		22881.76
7.67		268.09		22899.23
7.69		267.98		22916.82
7.69		267.88		22934.41
7.70		267.78		22952.14
7.70		267.67		22969.86
7.72		267.57		22987.73
7.72		267.47		23005.59
7.74		267.36		23023.61
7.74		267.26		23041.66
7.75		267.15		23059.75
7.76		267.05		23077.89
7.77		266.94		23096.08
7.78		266.84		23114.35
7.78		266.73		23132.65
7.79		266.62		23151.04
7.80		266.52		23169.46
7.81		266.41		23187.96
7.82		266.31		23206.49
7.83		266.20		23225.11
7.83		266.09		23243.74
7.84		265.98		23262.49
7.85		265.88		23281.25
7.86		265.77		23300.13
7.86		265.66		23319.02
7.88		265.55		23338.04
7.88		265.45		23357.07
7.89		265.34		23376.25
7.90		265.23		23395.42
7.91		265.12		23414.76
7.91		265.01		23434.09
7.93		264.90		23453.61
7.94		264.79		23473.16
7.94		264.68		23492.75
7.95		264.57		23512.41
7.96		264.46		23532.13
7.97		264.35		23551.93
7.98		264.23		23571.78
7.99		264.12		23591.72
7.99		264.01		23611.70
8.00		263.90		23631.77
8.01		263.79		23651.88
8.02		263.67		23672.09
8.02		263.56		23692.32
8.04		263.45		23712.68
8.04		263.33		23733.05
8.05		263.22		23753.58
8.06		263.11		23774.11
8.07		262.99		23794.81
8.07		262.88		23815.51
8.09		262.76		23836.39
8.09		262.65		23857.27
8.10		262.53		23878.34
8.10		262.42		23899.41
8.12		262.30		23920.66
8.13		262.18		23941.97
8.14		262.07		23963.34
8.14		261.95		23984.78
8.15		261.83		24006.30
8.16		261.71		24027.91
8.17		261.60		24049.58
8.18		261.48		24071.36
8.18		261.36		24093.21
8.19		261.24		24115.22
8.20		261.12		24137.30
8.21		261.00		24159.56
8.22		260.88		24181.88
8.23		260.76		24204.40
8.23		260.64		24226.97
8.24		260.51		24249.76
8.25		260.39		24272.60
8.26		260.27		24295.68
8.26		260.14		24318.81
8.28		260.02		24342.20
8.28		259.89		24365.63
8.29		259.77		24389.34
8.30		259.64		24413.09
8.31		259.51		24437.15
8.32		259.38		24461.33
8.33		259.26		24485.63
8.34		259.13		24510.05
8.34		259.00		24534.58
8.35		258.87		24559.25
8.36		258.74		24584.02
8.37		258.61		24608.94
8.38		258.47		24633.95
8.39		258.34		24659.13
8.39		258.21		24684.39
8.40		258.08		24709.84
8.41		257.94		24735.37
8.42		257.81		24761.10
8.42		257.68		24786.90
8.44		257.54		24812.92
8.44		257.41		24838.93
8.45		257.27		24865.09
8.46		257.14		24891.22
8.47		257.00		24917.60
8.47		256.87		24943.45
8.49		256.75		24966.59
8.49		256.65		24986.33
8.50		256.56		25003.89
8.51		256.47		25020.53
8.52		256.38		25037.28
8.53		256.30		25054.15
8.54		256.21		25071.12
8.54		256.12		25088.21
8.55		256.04		25105.39
8.56		255.95		25122.70
8.57		255.86		25140.12
8.58		255.77		25157.66
8.58		255.68		25175.29
8.59		255.59		25193.06
8.60		255.50		25210.91
8.61		255.41		25228.92
8.62		255.32		25246.98
8.63		255.22		25265.25
8.63		255.13		25283.57
8.64		255.04		25302.12
8.65		254.95		25320.70
8.66		254.85		25339.53
8.66		254.76		25358.40
8.68		254.66		25377.54
8.68		254.56		25396.71
8.69		254.47		25416.19
8.70		254.37		25435.69
8.71		254.27		25455.52
8.72		254.17		25475.47
8.73		254.07		25495.53
8.74		253.97		25515.71
8.74		253.87		25536.00
8.75		253.77		25556.41
8.76		253.67		25576.91
8.77		253.56		25597.57
8.78		253.46		25618.30
8.79		253.36		25639.20
8.79		253.25		25660.17
8.80		253.15		25681.33
8.81		253.04		25702.56
8.82		252.94		25723.99
8.82		252.83		25745.49
8.84		252.73		25767.20
8.84		252.62		25788.96
8.85		252.51		25810.95
8.86		252.41		25832.85
8.87		252.30		25854.87
8.87		252.19		25876.81
8.89		252.08		25899.01
8.89		251.97		25921.23
8.90		251.87		25943.79
8.90		251.76		25966.39
8.92		251.64		25989.34
8.92		251.54		26011.76
8.94		251.43		26033.42
8.94		251.33		26054.11
8.95		251.23		26074.20
8.96		251.14		26094.19
8.97		251.04		26114.29
8.98		250.94		26134.53
8.98		250.85		26154.86
8.99		250.75		26175.35
9.00		250.65		26195.92
9.01		250.55		26216.67
9.02		250.45		26237.48
9.03		250.35		26258.50
9.03		250.25		26279.51
9.04		250.15		26300.74
9.05		250.05		26321.98
9.06		249.95		26343.47
9.06		249.85		26364.99
9.08		249.74		26386.82
9.08		249.64		26408.67
9.09		249.53		26430.84
9.10		249.43		26452.77
9.11		249.33		26474.58
9.11		249.23		26495.99
9.13		249.13		26517.41
9.14		249.03		26538.73
9.14		248.93		26560.10
9.15		248.83		26581.60
9.16		248.72		26603.18
9.17		248.62		26624.92
9.18		248.52		26646.73
9.19		248.42		26668.67
9.19		248.32		26690.60
9.20		248.21		26712.57
9.21		248.11		26734.48
9.22		248.01		26756.45
9.22		247.91		26778.39
9.24		247.81		26800.44
9.24		247.71		26822.47
9.25		247.60		26844.64
9.26		247.50		26866.77
9.27		247.40		26889.06
9.27		247.30		26911.28
9.29		247.19		26933.67
9.29		247.09		26955.97
9.30		246.99		26978.45
9.30		246.89		27000.83
9.32		246.78		27023.42
9.32		246.68		27045.89
9.34		246.58		27068.57
9.34		246.47		27091.20
9.35		246.37		27113.83
9.36		246.27		27136.60
9.37		246.16		27159.50
9.38		246.06		27182.55
9.38		245.95		27205.70
9.39		245.85		27229.04
9.40		245.74		27252.46
9.41		245.64		27276.08
9.42		245.53		27299.78
9.43		245.42		27323.71
9.43		245.32		27347.70
9.44		245.21		27371.95
9.45		245.10		27396.25
9.46		244.99		27420.85
9.46		244.88		27445.49
9.48		244.77		27470.46
9.48		244.66		27495.46
9.49		244.54		27520.82
9.50		244.43		27546.22
9.51		244.32		27572.02
9.51		244.20		27597.86
9.53		244.08		27624.09
9.54		243.97		27650.48
9.54		243.85		27676.99
9.55		243.73		27703.67
9.56		243.62		27730.15
9.57		243.50		27756.15
9.58		243.39		27781.75
9.59		243.28		27807.27
9.59		243.17		27832.82
9.60		243.06		27858.58
9.61		242.94		27884.42
9.62		242.83		27910.45
9.62		242.72		27936.45
9.64		242.60		27962.54
9.64		242.49		27988.55
9.65		242.38		28014.70
9.66		242.26		28040.77
9.67		242.15		28067.04
9.67		242.04		28093.29
9.69		241.92		28119.82
9.69		241.81		28146.36
9.70		241.69		28173.14
9.70		241.58		28199.87
9.72		241.46		28226.82
9.73		241.35		28253.73
9.74		241.23		28280.63
9.74		241.12		28307.61
9.75		241.00		28334.66
9.76		240.89		28361.83
9.77		240.77		28389.06
9.78		240.66		28416.39
9.78		240.54		28443.74
9.79		240.43		28471.21
9.80		240.31		28498.69
9.81		240.19		28526.30
9.82		240.08		28553.91
9.83		239.96		28581.67
9.83		239.84		28609.42
9.84		239.73		28637.35
9.85		239.61		28665.25
9.86		239.49		28693.34
9.86		239.38		28721.40
9.88		239.26		28749.66
9.88		239.14		28777.88
9.89		239.02		28806.32
9.90		238.91		28834.70
9.91		238.79		28863.33
9.92		238.67		28891.96
9.93		238.55		28920.64
9.94		238.43		28949.40
9.94		238.31		28978.25
9.95		238.19		29007.21
9.96		238.08		29036.22
9.97		237.96		29065.33
9.98		237.84		29094.46
9.99		237.72		29123.71
9.99		237.60		29152.98
10.00		237.48		29182.38
10.01		237.36		29211.81
10.02		237.24		29241.39
10.02		237.12		29270.97
10.04		237.00		29300.72
10.04		236.88		29330.46
10.05		236.76		29360.39
10.06		236.64		29390.29
10.07		236.52		29420.40
10.07		236.40		29450.47
10.09		236.27		29480.79
10.09		236.15		29511.05
10.10		236.03		29541.56
10.10		235.91		29572.02
10.12		235.79		29602.74
10.13		235.66		29633.47
10.14		235.54		29664.25
10.14		235.42		29695.13
10.15		235.30		29726.10
10.16		235.17		29757.20
10.17		235.05		29788.35
10.18		234.93		29819.61
10.18		234.80		29850.90
10.19		234.68		29882.32
10.20		234.56		29913.75
10.21		234.43		29945.36
10.22		234.31		29976.99
10.23		234.19		30008.77
10.23		234.06		30040.56
10.24		233.94		30072.54
10.25		233.81		30104.50
10.26		233.69		30136.69
10.26		233.56		30168.84
10.28		233.44		30201.22
10.28		233.31		30233.57
10.29		233.19		30266.16
10.30		233.06		30298.71
10.31		232.94		30331.53
10.31		232.81		30364.29
10.33		232.68		30397.35
10.34		232.56		30430.42
10.34		232.43		30463.55
10.35		232.30		30496.78
10.36		232.18		30530.11
10.37		232.05		30563.58
10.38		231.92		30597.11
10.39		231.80		30630.78
10.39		231.67		30664.46
10.40		231.54		30698.30
10.41		231.41		30732.16
10.42		231.29		30766.21
10.42		231.16		30800.27
10.44		231.03		30834.54
10.44		230.90		30868.80
10.45		230.77		30903.29
10.46		230.64		30937.75
10.47		230.51		30972.46
10.47		230.38		31007.15
10.49		230.26		31042.07
10.49		230.13		31076.97
10.50		230.00		31112.14
10.50		229.87		31147.28
10.52		229.74		31182.71
10.53		229.60		31218.16
10.54		229.47		31253.68
10.54		229.34		31289.32
10.55		229.21		31325.07
10.56		229.08		31360.96
10.57		228.95		31396.93
10.58		228.82		31433.03
10.58		228.69		31469.16
10.59		228.56		31505.46
10.60		228.42		31541.80
10.61		228.29		31578.32
10.62		228.16		31614.87
10.63		228.03		31651.63
10.63		227.89		31688.40
10.64		227.76		31725.40
10.65		227.63		31762.39
10.66		227.50		31799.64
10.66		227.36		31836.75
10.68		227.23		31874.04
10.68		227.10		31911.09
10.69		226.97		31948.31
10.70		226.83		31985.47
10.71		226.70		32023.09
10.71		226.57		32060.78
10.73		226.43		32098.97
10.74		226.30		32137.37
10.74		226.16		32175.93
10.75		226.03		32214.72
10.76		225.89		32253.66
10.77		225.75		32292.84
10.78		225.61		32332.16
10.79		225.48		32371.74
10.79		225.34		32411.45
10.80		225.20		32451.44
10.81		225.06		32491.55
10.82		224.92		32531.97
10.82		224.78		32572.49
10.84		224.64		32613.34
10.84		224.50		32654.30
10.85		224.36		32695.61
10.86		224.22		32737.01
10.87		224.07		32778.80
10.87		223.93		32820.67
10.89		223.79		32862.96
10.89		223.64		32905.33
10.90		223.50		32948.15
10.90		223.35		32991.05
10.92		223.20		33034.41
10.93		223.06		33077.95
10.94		222.91		33121.69
10.94		222.76		33165.62
10.95		222.61		33209.73
10.96		222.47		33254.06
10.97		222.32		33298.55
10.98		222.17		33343.28
10.98		222.02		33388.16
10.99		221.87		33433.30
11.00		221.72		33478.57
11.01		221.57		33524.13
11.02		221.42		33569.82
11.03		221.27		33615.82
11.03		221.11		33661.94
11.04		220.96		33708.38
11.05		220.81		33754.94
11.06		220.66		33801.84
11.06		220.50		33848.85
11.08		220.35		33896.25
11.08		220.20		33942.20
11.09		220.06		33986.12
11.10		219.92		34028.08
11.11		219.79		34069.29
11.11		219.66		34110.41
11.13		219.52		34151.97
11.14		219.39		34193.71
11.14		219.25		34235.63
11.15		219.12		34277.73
11.16		218.98		34319.99
11.17		218.85		34362.45
11.18		218.71		34405.06
11.19		218.58		34447.90
11.19		218.44		34490.87
11.20		218.30		34534.09
11.21		218.17		34577.43
11.22		218.03		34621.05
11.22		217.89		34664.78
11.24		217.75		34708.81
11.24		217.62		34752.95
11.25		217.48		34797.42
11.26		217.34		34841.99
11.27		217.20		34886.92
11.27		217.06		34931.94
11.29		216.92		34977.36
11.29		216.77		35022.86
11.30		216.63		35068.27
11.31		216.50		35112.94
11.32		216.36		35156.88
11.33		216.23		35200.31
11.34		216.10		35243.54
11.34		215.96		35286.86
11.35		215.83		35330.35
11.36		215.70		35374.04
11.37		215.56		35417.88
11.38		215.43		35461.94
11.38		215.29		35506.15
11.39		215.16		35550.60
11.40		215.03		35595.18
11.41		214.89		35640.01
11.42		214.75		35684.96
11.43		214.62		35730.21
11.43		214.48		35775.56
11.44		214.35		35821.24
11.45		214.21		35867.02
11.46		214.07		35913.14
11.46		213.93		35959.37
11.48		213.79		36005.97
11.48		213.66		36052.67
11.49		213.52		36099.76
11.50		213.38		36146.94
11.51		213.24		36194.56
11.52		213.10		36242.37
11.53		212.96		36290.38
11.54		212.81		36338.58
11.54		212.67		36386.97
11.55		212.53		36435.57
11.56		212.39		36484.37
11.57		212.25		36533.36
11.58		212.10		36582.62
11.59		211.96		36632.31
11.59		211.82		36682.21
11.60		211.67		36732.38
11.61		211.53		36782.70
11.62		211.38		36833.32
11.62		211.23		36884.07
11.64		211.09		36934.94
11.64		210.94		36985.67
11.65		210.80		37036.41
11.66		210.66		37086.98
11.67		210.51		37137.64
11.67		210.37		37188.23
11.69		210.23		37239.02
11.69		210.08		37289.75
11.70		209.94		37340.69
11.70		209.80		37391.61
11.72		209.65		37443.21
11.73		209.51		37495.55
11.74		209.36		37548.50
11.74		209.21		37601.84
11.75		209.06		37655.39
11.76		208.91		37709.17
11.77		208.76		37763.14
11.78		208.61		37817.35
11.78		208.46		37871.75
11.79		208.31		37926.41
11.80		208.16		37981.23
11.81		208.01		38036.35
11.82		207.86		38091.63
11.83		207.71		38147.22
11.83		207.56		38202.96
11.84		207.41		38258.72
11.85		207.25		38314.29
11.86		207.10		38369.92
11.86		206.95		38425.59
11.88		206.80		38481.58
11.88		206.65		38537.70
11.89		206.50		38594.22
11.90		206.35		38650.93
11.91		206.20		38708.08
11.91		206.05		38765.30
11.93		205.89		38822.78
11.94		205.74		38880.27
11.94		205.59		38937.79
11.95		205.44		38995.44
11.96		205.28		39053.25
11.97		205.13		39111.31
11.98		204.98		39169.56
11.99		204.83		39228.07
11.99		204.67		39286.74
12.00		204.52		39345.65
12.01		204.37		39404.66
12.02		204.21		39463.90
12.02		204.06		39523.24
12.04		203.91		39582.84
12.04		203.75		39642.54
12.05		203.60		39702.54
12.06		203.45		39762.63
12.07		203.29		39823.01
12.07		203.14		39883.47
12.09		202.98		39944.23
12.09		202.83		40005.08
12.10		202.67		40066.24
12.10		202.52		40127.49
12.12		202.36		40189.08
12.13		202.21		40250.80
12.14		202.05		40312.68
12.14		201.90		40374.75
12.15		201.74		40437.01
12.16		201.59		40499.48
12.17		201.43		40562.03
12.18		201.28		40624.41
12.18		201.12		40686.28
12.19		200.97		40747.93
12.20		200.82		40810.89
12.21		200.65		40876.97
12.22		200.48		40946.28
12.23		200.31		41018.15
12.23		200.13		41091.06
12.24		199.95		41164.32
12.25		199.77		41237.78
12.26		199.59		41311.61
12.26		199.42		41385.64
12.28		199.24		41460.06
12.28		199.06		41534.68
12.29		198.88		41609.69
12.30		198.70		41684.91
12.31		198.52		41760.53
12.31		198.34		41836.35
12.33		198.16		41912.60
12.34		197.98		41989.12
12.34		197.80		42065.91
12.35		197.62		42142.97
12.36		197.43		42220.28
12.37		197.25		42297.88
12.38		197.07		42375.72
12.39		196.89		42453.86
12.39		196.71		42532.24
12.40		196.53		42610.94
12.41		196.35		42689.87
12.42		196.16		42769.12
12.42		195.98		42848.61
12.44		195.80		42928.44
12.44		195.62		43008.50
12.45		195.43		43088.91
12.46		195.25		43169.55
12.47		195.07		43250.56
12.47		194.89		43331.79
12.49		194.70		43413.42
12.49		194.52		43495.27
12.50		194.34		43577.50
12.50		194.15		43659.96
12.52		193.97		43742.83
12.53		193.78		43825.98
12.54		193.60		43909.41
12.54		193.42		43993.13
12.55		193.23		44077.13
12.56		193.05		44161.43
12.57		192.86		44245.99
12.58		192.68		44330.87
12.58		192.49		44416.01
12.59		192.31		44501.48
12.60		192.12		44587.20
12.61		191.94		44673.26
12.62		191.75		44759.59
12.63		191.57		44846.25
12.63		191.38		44933.18
12.64		191.20		45020.45
12.65		191.01		45107.99
12.66		190.82		45195.90
12.66		190.64		45284.06
12.68		190.45		45372.59
12.68		190.27		45461.39
12.69		190.08		45550.57
12.70		189.89		45640.02
12.71		189.71		45729.86
12.72		189.52		45820.02
12.73		189.33		45910.48
12.74		189.15		46001.25
12.74		188.96		46092.32
12.75		188.77		46183.71
12.76		188.59		46275.40
12.77		188.40		46367.41
12.78		188.21		46459.72
12.79		188.02		46552.37
12.79		187.84		46645.31
12.80		187.65		46738.59
12.81		187.46		46832.16
12.82		187.27		46926.08
12.82		187.09		47020.30
12.84		186.90		47114.87
12.84		186.71		47209.74
12.85		186.52		47304.96
12.86		186.33		47400.48
12.87		186.15		47496.37
12.87		185.96		47592.56
12.89		185.77		47689.13
12.89		185.58		47786.00
12.90		185.39		47883.26
12.90		185.20		47980.82
12.92		185.02		48078.78
12.93		184.83		48177.07
12.94		184.64		48275.69
12.95		184.45		48374.68
12.95		184.26		48473.98
12.96		184.07		48573.61
12.97		183.88		48673.57
12.98		183.69		48773.87
12.98		183.50		48874.49
12.99		183.31		48975.47
13.00		183.12		49076.76
13.01		182.94		49178.42
13.02		182.75		49280.39
13.03		182.56		49382.73
13.03		182.37		49485.39
13.04		182.18		49588.41
13.05		181.99		49691.76
13.06		181.80		49795.47
13.06		181.61		49899.51
13.08		181.42		50002.58
13.08		181.24		50103.98
13.09		181.06		50203.86
13.10		180.88		50302.81
13.11		180.70		50401.51
13.12		180.52		50500.46
13.13		180.35		50599.72
13.14		180.17		50699.28
13.14		179.99		50799.14
13.15		179.82		50899.30
13.16		179.64		50999.77
13.17		179.46		51100.55
13.18		179.28		51201.63
13.19		179.11		51303.02
13.19		178.93		51404.71
13.20		178.75		51506.71
13.21		178.58		51609.02
13.22		178.40		51711.64
13.22		178.22		51814.57
13.24		178.04		51917.81
13.24		177.87		52021.36
13.25		177.69		52125.21
13.26		177.51		52229.38
13.27		177.33		52333.85
13.27		177.15		52440.36
13.29		176.97		52549.90
13.29		176.78		52662.32
13.30		176.59		52776.99
13.30		176.39		52893.08
13.32		176.20		53009.71
13.33		176.01		53126.31
13.34		175.81		53242.85
13.34		175.62		53359.42
13.35		175.43		53476.16
13.36		175.24		53593.18
13.37		175.05		53710.58
13.38		174.86		53828.35
13.38		174.66		53946.50
13.39		174.47		54066.23
13.40		174.27		54187.87
13.41		174.08		54311.08
13.42		173.88		54435.49
13.43		173.68		54560.83
13.43		173.48		54686.96
13.44		173.28		54813.74
13.45		173.08		54941.02
13.46		172.87		55068.73
13.46		172.67		55196.90
13.48		172.47		55325.59
13.48		172.27		55454.81
13.49		172.07		55584.31
13.50		171.87		55714.01
13.51		171.67		55843.88
13.52		171.47		55974.10
13.53		171.27		56104.75
13.54		171.07		56235.82
13.54		170.87		56367.52
13.55		170.67		56500.44
13.56		170.47		56634.85
13.57		170.26		56770.67
13.58		170.06		56907.63
13.59		169.85		57045.39
13.59		169.65		57183.68
13.60		169.44		57322.40
13.61		169.24		57461.61
13.62		169.03		57601.14
13.62		168.83		57741.03
13.64		168.62		57881.19
13.64		168.42		58021.85
13.65		168.21		58163.14
13.66		168.01		58305.32
13.67		167.80		58448.39
13.67		167.60		58592.49
13.69		167.39		58737.49
13.69		167.18		58883.50
13.70		166.97		59030.33
13.70		166.76		59178.11
13.72		166.56		59326.63
13.73		166.35		59476.03
13.74		166.14		59626.30
13.74		165.93		59777.40
13.75		165.72		59929.27
13.76		165.51		60081.85
13.77		165.30		60235.09
13.78		165.08		60388.88
13.78		164.87		60543.07
13.79		164.66		60697.48
13.80		164.45		60852.15
13.81		164.25		61007.05
13.82		164.04		61162.41
13.83		163.83		61318.14
13.83		163.62		61474.43
13.84		163.41		61631.11
13.85		163.20		61788.56
13.86		163.00		61946.77
13.86		162.79		62106.00
13.88		162.58		62266.17
13.88		162.37		62427.55
13.89		162.16		62589.95
13.90		161.94		62753.61
13.91		161.73		62918.17
13.91		161.52		63083.83
13.93		161.31		63250.17
13.94		161.09		63417.41
13.94		160.88		63585.47
13.95		160.67		63754.24
13.96		160.46		63923.70
13.97		160.24		64093.76
13.98		160.03		64264.46
13.99		159.82		64435.69
13.99		159.60		64607.58
14.00		159.39		64780.13
14.01		159.18		64953.62
14.02		158.96		65128.06
14.02		158.75		65303.70
14.04		158.54		65480.44
14.04		158.32		65658.46
14.05		158.11		65837.42
14.06		157.89		66017.45
14.07		157.67		66198.14
14.07		157.46		66379.70
14.09		157.24		66561.78
14.09		157.03		66744.76
14.10		156.81		66928.35
14.10		156.60		67113.05
14.12		156.38		67298.53
14.13		156.16		67485.26
14.14		155.95		67673.23
14.14		155.73		67862.41
14.15		155.51		68052.71
14.16		155.29		68244.04
14.17		155.07		68436.34
14.18		154.86		68629.49
14.18		154.64		68823.50
14.19		154.42		69018.27
14.20		154.20		69213.91
14.21		153.98		69410.30
14.22		153.76		69607.68
14.23		153.55		69805.88
14.23		153.33		70005.20
14.24		153.11		70205.37
14.25		152.89		70406.80
14.26		152.67		70609.16
14.27		152.45		70812.78
14.28		152.23		71017.65
14.28		152.01		71223.81
14.29		151.79		71430.77
14.30		151.57		71639.09
14.31		151.35		71848.24
14.31		151.13		72058.86
14.33		150.91		72270.42
14.34		150.68		72483.44
14.34		150.46		72697.86
14.35		150.24		72913.52
14.36		150.02		73130.38
14.37		149.79		73348.29
14.38		149.57		73567.29
14.39		149.35		73787.18
14.39		149.12		74008.17
14.40		148.90		74230.07
14.41		148.68		74453.16
14.42		148.45		74677.23
14.42		148.23		74902.66
14.44		148.01		75129.13
14.44		147.78		75357.08
14.45		147.56		75586.12
14.46		147.33		75816.72
14.47		147.11		76048.41
14.47		146.88		76281.73
14.49		146.66		76516.10
14.49		146.43		76752.17
14.50		146.21		76989.30
14.51		145.98		77228.09
14.52		145.75		77468.46
14.53		145.53		77710.28
14.54		145.30		77953.45
14.54		145.07		78197.88
14.55		144.85		78443.55
14.56		144.62		78690.36
14.57		144.39		78938.42
14.58		144.16		79187.67
14.58		143.94		79438.27
14.59		143.71		79690.09
14.60		143.48		79943.38
14.61		143.25		80197.94
14.62		143.02		80454.09
14.63		142.80		80711.52
14.63		142.57		80970.64
14.64		142.34		81230.99
14.65		142.11		81493.14
14.66		141.88		81756.54
14.66		141.65		82021.85
14.68		141.42		82288.43
14.68		141.19		82557.01
14.69		140.96		82826.85
14.70		140.73		83098.81
14.71		140.50		83372.05
14.72		140.27		83647.38
14.73		140.04		83924.66
14.74		139.80		84203.70
14.74		139.57		84484.37
14.75		139.34		84766.54
14.76		139.11		85050.23
14.77		138.87		85335.30
14.78		138.64		85621.94
14.79		138.41		85909.98
14.79		138.18		86199.75
14.80		137.94		86491.00
14.81		137.71		86784.14
14.82		137.48		87078.83
14.82		137.24		87375.54
14.84		137.01		87673.83
14.84		136.78		87974.26
14.85		136.54		88276.22
14.86		136.31		88580.43
14.87		136.07		88886.20
14.87		135.84		89194.32
14.89		135.60		89503.99
14.89		135.37		89816.11
14.90		135.13		90129.78
14.90		134.89		90446.04
14.92		134.66		90763.89
14.92		134.42		91084.47
14.94		134.18		91406.70
14.94		133.94		91731.60
14.95		133.71		92058.97
14.96		133.47		92388.51
14.97		133.23		92720.10
14.98		132.99		93053.47
14.98		132.75		93388.79
14.99		132.51		93725.81
15.00		132.27		94064.93
15.01		132.03		94405.77
15.02		131.79		94748.98
15.03		131.56		95094.11
15.03		131.32		95441.83
15.04		131.08		95791.49
15.05		130.83		96143.91
15.06		130.59		96498.31
15.06		130.35		96855.60
15.08		130.11		97214.86
15.08		129.87		97577.12
15.09		129.63		97941.39
15.10		129.39		98308.78
15.11		129.14		98678.16
15.11		128.90		99050.81
15.13		128.66		99425.50
15.14		128.41		99803.45
15.14		128.17		100184.41
15.15		127.92		100568.08
15.16		127.68		100954.26
15.17		127.43		101342.71
15.18		127.19		101733.56
15.19		126.94		102126.62
15.19		126.70		102522.28
15.20		126.45		102920.16
15.21		126.21		103320.94
15.22		125.96		103724.19
15.22		125.72		104130.58
15.24		125.47		104539.44
15.24		125.22		104951.63
15.25		124.98		105366.35
15.26		124.73		105784.55
15.27		124.48		106205.33
15.27		124.24		106629.71
15.29		123.99		107056.61
15.29		123.74		107487.30
15.30		123.49		107920.57
15.30		123.24		108357.87
15.32		122.99		108797.87
15.33		122.74		109241.90
15.34		122.49		109689.66
15.34		122.24		110140.78
15.35		121.99		110595.06
15.36		121.74		111052.16
15.37		121.49		111512.33
15.38		121.23		111975.40
15.38		120.98		112441.74
15.39		120.73		112911.11
15.40		120.48		113384.07
15.41		120.23		113860.21
15.42		119.97		114340.19
15.43		119.72		114823.43
15.43		119.47		115310.72
15.44		119.21		115801.25
15.45		118.96		116296.05
15.46		118.71		116794.18
15.46		118.45		117296.78
15.48		118.20		117802.82
15.48		117.94		118313.45
15.49		117.69		118827.44
15.50		117.43		119346.31
15.51		117.17		119868.73
15.51		116.92		120396.30
15.53		116.66		120927.57
15.54		116.40		121464.13
15.54		116.14		122005.60
15.55		115.88		122551.41
15.56		115.63		123101.34
15.57		115.37		123655.02
15.58		115.11		124212.73
15.59		114.85		124774.23
15.59		114.59		125340.15
15.60		114.33		125910.12
15.61		114.07		126484.93
15.62		113.81		127064.06
15.62		113.55		127648.36
15.64		113.29		128237.12
15.64		113.02		128831.29
15.65		112.76		129429.94
15.66		112.50		130034.24
15.67		112.24		130643.16
15.67		111.98		131257.87
15.69		111.71		131877.19
15.69		111.45		132502.60
15.70		111.18		133132.84
15.70		110.92		133769.56
15.72		110.65		134411.37
15.73		110.39		135059.89
15.74		110.12		135714.66
15.74		109.85		136375.13
15.75		109.59		137040.96
15.76		109.32		137711.86
15.77		109.05		138388.12
15.78		108.78		139069.57
15.78		108.52		139756.82
15.79		108.25		140449.63
15.80		107.98		141148.73
15.81		107.71		141853.71
15.82		107.44		142565.34
15.83		107.17		143283.03
15.83		106.90		144007.65
15.84		106.63		144738.46
15.85		106.36		145476.42
15.86		106.09		146220.67
15.86		105.82		146972.38
15.88		105.55		147730.60
15.88		105.28		148496.63
15.89		105.00		149269.48
15.90		104.73		150050.51
15.91		104.45		150838.68
15.91		104.18		151635.49
15.93		103.90		152439.85
15.94		103.63		153253.45
15.94		103.35		154075.68
15.95		103.07		154905.83
15.96		102.80		155743.43
15.97		102.52		156588.22
15.98		102.24		157440.43
15.99		101.96		158300.14
15.99		101.69		159167.90
16.00		101.41		160043.75
16.01		101.13		160928.32
16.02		100.85		161821.50
16.02		100.57		162723.89
16.04		100.29		163635.23
16.04		100.01		164556.21
16.05		99.72		165486.51
16.06		99.44		166426.82
16.07		99.16		167376.77
16.07		98.88		168337.07
16.09		98.59		169307.44
16.09		98.31		170288.66
16.10		98.02		171280.55
16.10		97.74		172283.93
16.12		97.45		173298.67
16.13		97.16		174325.97
16.14		96.88		175365.11
16.14		96.59		176415.34
16.15		96.30		177476.16
16.16		96.01		178547.51
16.17		95.72		179629.55
16.18		95.43		180722.71
16.18		95.14		181827.34
16.19		94.85		182943.95
16.20		94.56		184072.80
16.21		94.26		185214.39
16.22		93.97		186368.74
16.23		93.68		187536.49
16.23		93.39		188717.57
16.24		93.09		189912.87
16.25		92.80		191122.10
16.26		92.50		192346.13
16.26		92.20		193584.37
16.28		91.91		194838.24
16.28		91.61		196107.00
16.29		91.31		197392.61
16.30		91.01		198694.07
16.31		90.71		200013.77
16.31		90.41		201350.32
16.33		90.11		202706.28
16.34		89.80		204081.23
16.34		89.50		205474.22
16.35		89.19		206884.37
16.36		88.89		208310.73
16.37		88.58		209754.02
16.38		88.27		211214.01
16.39		87.96		212692.42
16.39		87.66		214188.80
16.40		87.35		215705.34
16.41		87.04		217240.96
16.42		86.73		218798.36
16.42		86.42		220375.66
16.44		86.11		221976.22
16.44		85.79		223597.35
16.45		85.48		225243.26
16.46		85.16		226910.40
16.47		84.85		228604.19
16.47		84.53		230320.07
16.49		84.21		232065.83
16.49		83.89		233838.64
16.50		83.57		235637.80
16.51		83.25		237462.98
16.52		82.93		239313.06
16.53		82.62		241076.96
16.54		82.35		242689.79
16.54		82.10		244178.13
16.55		81.86		245616.18
16.56		81.62		247056.47
16.57		81.38		248512.49
16.58		81.14		249987.38
16.58		80.90		251479.53
16.59		80.65		252993.12
16.60		80.41		254524.34
16.61		80.17		256078.14
16.62		79.92		257649.58
16.63		79.68		259245.21
16.63		79.43		260858.79
16.64		79.18		262498.43
16.65		78.93		264156.70
16.66		78.68		265843.43
16.66		78.43		267549.83
16.68		78.18		269287.21
16.68		77.92		271045.41
16.69		77.67		272837.67
16.70		77.41		274652.04
16.71		77.15		276503.45
16.72		76.89		278383.99
16.73		76.63		280292.12
16.74		76.36		282226.11
16.74		76.10		284184.64
16.75		75.84		286168.79
16.76		75.57		288177.70
16.77		75.31		290214.93
16.78		75.04		292278.45
16.79		74.77		294373.42
16.79		74.50		296495.76
16.80		74.23		298652.28
16.81		73.96		300836.99
16.82		73.69		303058.42
16.82		73.42		305308.50
16.84		73.15		307598.10
16.84		72.87		309916.90
16.85		72.60		312278.51
16.86		72.32		314670.23
16.87		72.04		317108.43
16.87		71.76		319578.11
16.89		71.48		322099.08
16.89		71.20		324653.49
16.90		70.91		327264.71
16.90		70.64		329769.21
16.92		70.40		332105.88
16.93		70.17		334264.28
16.94		69.96		336289.50
16.94		69.75		338236.93
16.95		69.56		340157.78
16.96		69.36		342099.72
16.97		69.16		344068.21
16.98		68.96		346069.03
16.98		68.76		348097.69
16.99		68.56		350162.04
17.00		68.35		352259.96
17.01		68.15		354392.03
17.02		67.94		356551.99
17.03		67.73		358754.00
17.03		67.52		360985.17
17.04		67.31		363263.47
17.05		67.10		365572.62
17.06		66.88		367933.58
17.06		66.66		370326.72
17.08		66.44		372775.42
17.08		66.22		375257.12
17.09		66.00		377801.54
17.10		65.78		380381.77
17.11		65.55		383029.68
17.11		65.32		385715.46
17.13		65.09		388475.76
17.14		64.85		391289.73
17.14		64.62		394153.18
17.15		64.38		397067.39
17.16		64.14		400056.83
17.17		63.89		403150.49
17.18		63.64		406359.85
17.19		63.38		409691.63
17.19		63.12		413113.19
17.20		62.85		416614.32
17.21		62.59		420164.55
17.22		62.32		423783.35
17.22		62.05		427452.52
17.24		61.78		431196.55
17.24		61.51		434982.25
17.25		61.24		438774.89
17.26		60.98		442547.23
17.27		60.72		446375.79
17.27		60.46		450254.67
17.29		60.19		454299.97
17.29		59.91		458499.27
17.30		59.63		462883.01
17.30		59.34		467363.03
17.32		59.05		471963.08
17.33		58.76		476644.00
17.34		58.47		481405.59
17.34		58.18		486247.60
17.35		57.89		491166.75
17.36		57.59		496173.11
17.37		57.30		501260.72
17.38		57.01		506441.06
17.38		56.71		511703.95
17.39		56.42		517064.60
17.40		56.12		522501.18
17.41		55.83		528050.25
17.42		55.53		533687.97
17.43		55.23		539465.64
17.43		54.94		545343.19
17.44		54.63		551377.18
17.45		54.33		557517.10
17.46		54.03		563827.17
17.46		53.72		570242.26
17.48		53.41		576830.94
17.48		53.11		583527.95
17.49		52.80		590436.64
17.50		52.48		597467.99
17.51		52.17		604740.00
17.51		51.85		612146.44
17.53		51.54		619503.58
17.54		51.27		626120.32
17.54		51.04		631821.32
17.55		50.84		636710.25
17.56		50.67		641000.43
17.57		50.52		644926.40
17.58		50.37		648660.94
17.59		50.23		652386.81
17.59		50.07		656427.83
17.60		49.89		661270.05
17.61		49.68		666857.82
17.62		49.46		672832.92
17.62		49.24		678761.55
17.64		49.03		684601.39
17.64		48.83		690355.51
17.65		48.62		696234.99
17.66		48.41		702180.16
17.67		48.20		708314.41
17.67		47.99		714517.06
17.69		47.78		720932.96
17.69		47.57		727421.14
17.70		47.35		734149.90
17.70		47.13		740957.08
17.72		46.91		748026.97
17.73		46.68		755239.08
17.74		46.46		762596.98
17.74		46.23		770106.24
17.75		46.00		777758.00
17.76		45.77		785586.07
17.77		45.54		793558.62
17.78		45.31		801725.78
17.78		45.07		810037.65
17.79		44.84		818573.13
17.80		44.60		827255.67
17.81		44.36		836191.86
17.82		44.12		845286.92
17.83		43.88		854652.78
17.83		43.65		863875.68
17.84		43.43		872575.03
17.85		43.23		880521.76
17.86		43.05		888187.13
17.86		42.86		895733.95
17.88		42.68		903573.97
17.88		42.49		911502.53
17.89		42.30		919784.81
17.90		42.11		928161.57
17.91		41.91		936941.45
17.91		41.71		945824.36
17.93		41.51		955165.58
17.94		41.30		964726.81
17.94		41.10		974435.90
17.95		40.90		983855.37
17.96		40.72		992730.28
17.97		40.54		1001190.03
17.98		40.38		1009333.02
17.99		40.22		1017469.42
17.99		40.06		1025677.57
18.00		39.89		1034173.41
18.01		39.73		1042795.29
18.02		39.56		1051750.76
18.02		39.39		1060830.68
18.04		39.21		1070296.02
18.04		39.04		1079889.31
18.05		38.86		1089918.83
18.06		38.68		1100079.63
18.07		38.49		1110715.00
18.07		38.31		1121290.32
18.09		38.13		1132216.43
18.09		37.96		1141902.42
18.10		37.84		1149491.48
18.10		37.76		1154414.65
18.12		37.70		1157960.24
18.13		37.66		1160263.18
18.14		37.64		1161508.09
18.14		37.64		1161789.12
18.15		37.65		1161235.15
18.16		37.66		1160127.67
18.17		37.69		1158389.14
18.18		37.73		1155841.06
18.18		37.79		1152321.51
18.19		37.86		1148194.48
18.20		37.94		1143538.04
18.21		38.01		1138904.47
18.22		38.09		1134243.35
18.23		38.17		1129883.81
18.23		38.24		1125576.64
18.24		38.30		1121668.87
18.25		38.37		1117800.95
18.26		38.43		1114355.24
18.26		38.49		1110934.65
18.28		38.54		1107970.35
18.28		38.59		1105019.16
18.29		38.64		1102564.16
18.30		38.68		1100112.32
18.31		38.71		1098194.30
18.32		38.74		1096405.29
18.33		38.77		1094726.67
18.34		38.80		1093156.43
18.34		38.83		1091697.12
18.35		38.85		1090392.75
18.37		38.87		1089483.26
18.37		38.88		1088599.49
18.38		38.90		1087418.85
18.39		38.93		1085912.74
18.39		38.96		1084005.06
18.40		39.00		1082116.56
18.41		39.03		1080297.41
18.42		39.06		1078760.63
18.42		39.09		1077272.93
18.44		39.11		1076098.56
18.44		39.13		1074949.79
18.45		39.14		1074174.78
18.46		39.16		1073414.18
18.47		39.18		1072370.78
18.47		39.22		1069963.29
18.49		39.28		1066465.39
18.49		39.37		1061601.49
18.50		39.47		1056224.33
18.51		39.58		1050347.63
18.52		39.70		1044310.76
18.53		39.81		1038391.74
18.54		39.92		1032669.25
18.54		40.03		1027144.54
18.55		40.13		1021782.01
18.56		40.23		1016631.85
18.57		40.33		1011619.49
18.58		40.43		1006833.13
18.58		40.53		1001689.93
18.59		40.65		996197.89
18.60		40.77		990354.61
18.61		40.88		984597.84
18.62		41.00		978937.90
18.63		41.11		973586.41
18.63		41.23		968312.36
18.64		41.33		963361.99
18.65		41.44		958473.45
18.66		41.54		953851.29
18.66		41.64		949129.10
18.68		41.74		944628.56
18.68		41.84		940064.19
18.69		41.94		935842.48
18.70		42.03		931634.74
18.71		42.12		927842.65
18.72		42.20		924190.45
18.73		42.28		920676.41
18.74		42.36		917297.03
18.74		42.43		914044.20
18.75		42.51		910929.20
18.76		42.58		907919.05
18.77		42.64		905062.25
18.78		42.71		902291.27
18.79		42.77		899689.25
18.79		42.83		897151.98
18.80		42.89		894777.88
18.81		42.94		892399.20
18.82		43.00		890181.25
18.82		43.05		887967.27
18.84		43.10		885973.25
18.84		43.15		884004.59
18.85		43.19		882291.21
18.86		43.23		880587.92
18.87		43.27		879147.37
18.87		43.30		877694.54
18.89		43.33		876529.55
18.89		43.36		875352.41
18.90		43.38		874477.31
18.90		43.40		873593.66
18.92		43.42		873043.99
18.93		43.43		872582.05
18.94		43.44		872201.96
18.94		43.45		871902.19
18.95		43.45		871660.71
18.96		43.46		871516.37
18.97		43.46		871418.80
18.98		43.46		871444.87
18.98		43.46		871514.49
18.99		43.45		871744.95
19.00		43.44		872016.00
19.01		43.43		872468.79
19.02		43.42		872957.81
19.03		43.40		873604.66
19.03		43.39		874249.20
19.04		43.37		875076.88
19.05		43.35		875883.89
19.06		43.32		876897.92
19.06		43.30		877896.69
19.08		43.27		879123.81
19.08		43.24		880342.05
19.09		43.20		881859.92
19.10		43.16		883377.82
19.11		43.12		885231.86
19.11		43.07		887082.52
19.13		43.02		889258.68
19.14		42.97		891124.89
19.14		42.94		892490.91
19.15		42.92		893373.02
19.16		42.91		893821.20
19.17		42.91		894021.42
19.18		42.91		894030.50
19.19		42.90		894034.58
19.19		42.91		893992.95
19.20		42.90		894074.11
19.21		42.90		894176.18
19.22		42.89		894474.82
19.22		42.89		894805.70
19.24		42.87		895337.67
19.24		42.86		895850.89
19.25		42.84		896551.70
19.26		42.83		897166.31
19.27		42.81		897964.65
19.27		42.79		898670.16
19.29		42.77		899565.61
19.29		42.75		900383.76
19.30		42.73		901452.19
19.30		42.70		902468.80
19.32		42.67		903797.80
19.33		42.64		905205.16
19.34		42.60		906681.52
19.34		42.57		908207.65
19.35		42.53		909735.27
19.36		42.50		911290.62
19.37		42.46		912836.48
19.38		42.42		914452.26
19.38		42.39		916085.91
19.39		42.34		917879.60
19.40		42.30		919697.11
19.41		42.26		921698.20
19.42		42.21		923701.45
19.43		42.16		925898.23
19.43		42.11		928064.49
19.44		42.07		930068.93
19.45		42.03		931572.62
19.46		42.00		932969.48
19.46		41.97		934178.48
19.48		41.94		935682.20
19.48		41.91		937159.61
19.49		41.87		938980.26
19.50		41.83		940759.00
19.51		41.78		942887.69
19.51		41.73		944938.67
19.53		41.68		947338.07
19.54		41.63		949762.75
19.54		41.57		952194.29
19.55		41.52		954640.65
19.56		41.47		957084.73
19.57		41.41		959588.46
19.58		41.36		962088.34
19.59		41.30		964699.67
19.59		41.25		967293.05
19.60		41.19		970017.15
19.61		41.13		972690.69
19.62		41.07		975488.21
19.62		41.02		978199.67
19.64		40.97		980564.05
19.64		40.95		981557.79
19.65		40.96		981083.90
19.66		41.00		978902.90
19.67		41.07		975542.59
19.67		41.17		971045.17
19.69		41.27		966106.79
19.69		41.39		960785.53
19.70		41.50		955735.06
19.70		41.61		950583.88
19.72		41.71		945769.23
19.73		41.82		941041.51
19.74		41.92		936534.23
19.74		42.02		932310.11
19.75		42.11		928325.12
19.76		42.19		924581.42
19.77		42.27		920970.69
19.78		42.35		917540.40
19.78		42.43		914189.37
19.79		42.50		911045.57
19.80		42.57		907967.29
19.81		42.64		905108.08
19.82		42.71		902299.23
19.83		42.77		899732.72
19.83		42.83		897202.57
19.84		42.88		894936.18
19.85		42.94		892694.57
19.86		42.98		890743.81
19.86		43.03		888814.78
19.88		43.07		887176.42
19.88		43.11		885547.83
19.89		43.14		884255.78
19.90		43.18		882856.62
19.91		43.21		881598.00
19.92		43.24		880242.09
19.93		43.27		878835.17
19.94		43.31		877437.77
19.94		43.34		876095.22
19.95		43.37		874868.56
19.96		43.40		873720.79
19.97		43.43		872536.86
19.98		43.47		870885.50
19.99		43.52		868840.55
19.99		43.58		866488.57
20.00		43.64		864215.18
20.01		43.70		861980.56
20.02		43.75		859890.48
20.02		43.80		857753.76
20.04		43.85		855773.96
20.04		43.91		853766.57
20.05		43.95		851979.60
20.06		44.00		850194.55
20.07		44.04		848683.70
20.07		44.08		847178.49
20.09		44.11		845984.32
20.09		44.14		844787.96
20.10		44.16		843901.82
20.10		44.19		842963.65
20.12		44.20		842346.00
20.13		44.22		841798.50
20.14		44.23		841335.10
20.14		44.24		840948.07
20.15		44.25		840599.35
20.16		44.26		840305.31
20.17		44.26		839992.74
20.18		44.27		839754.52
20.18		44.28		839525.19
20.19		44.28		839452.51
20.20		44.28		839421.08
20.21		44.27		839576.75
20.22		44.27		839765.78
20.23		44.26		840129.23
20.23		44.25		840490.06
20.24		44.24		841027.20
20.25		44.22		841524.81
20.26		44.21		842065.51
20.26		44.20		842335.61
20.28		44.19		842658.38
20.28		44.19		842800.90
20.29		44.18		843130.29
20.30		44.18		843314.57
20.31		44.17		843719.30
20.31		44.16		844002.86
20.33		44.14		844561.95
20.34		44.13		845163.70
20.34		44.11		845830.49
20.35		44.09		846572.03
20.36		44.07		847377.88
20.37		44.05		848271.48
20.38		44.02		849205.76
20.39		44.00		850211.30
20.39		43.97		851185.94
20.40		43.94		852270.17
20.41		43.92		853323.37
20.42		43.89		854526.90
20.42		43.86		855699.15
20.44		43.82		857063.53
20.44		43.79		858423.72
20.45		43.74		860052.85
20.46		43.70		861699.96
20.47		43.65		863633.62
20.47		43.60		865572.15
20.49		43.55		867836.41
20.49		43.49		870093.48
20.50		43.43		872707.15
20.50		43.36		875279.94
20.52		43.29		878197.35
20.53		43.22		881166.03
20.54		43.14		884199.52
20.54		43.07		887323.52
20.55		42.99		890546.14
20.56		42.91		893922.60
20.57		42.82		897395.54
20.58		42.74		901008.88
20.58		42.65		904644.04
20.59		42.56		908402.08
20.60		42.48		912172.34
20.61		42.38		916157.35
20.62		42.29		920204.93
20.63		42.19		924496.42
20.63		42.09		928840.51
20.64		41.99		933510.91
20.65		41.89		938031.56
20.66		41.80		942113.49
20.66		41.73		945221.70
20.68		41.67		947764.86
20.68		41.63		949565.69
20.69		41.60		951201.40
20.70		41.57		952462.36
20.71		41.54		953914.06
20.71		41.51		955251.37
20.73		41.47		956973.48
20.74		41.43		958760.24
20.74		41.39		960542.38
20.75		41.36		962289.23
20.76		41.32		963907.51
20.77		41.29		965479.82
20.78		41.26		966950.98
20.79		41.22		968504.67
20.79		41.19		970071.52
20.80		41.15		971856.82
20.81		41.11		973676.16
20.82		41.07		975729.93
20.82		41.03		977780.40
20.84		40.98		980082.91
20.84		40.93		982365.46
20.85		40.88		984872.17
20.86		40.83		987258.48
20.87		40.78		989862.72
20.87		40.72		992336.64
20.89		40.67		995099.81
20.89		40.61		997775.95
20.90		40.55		1000834.14
20.90		40.49		1003853.32
20.92		40.42		1007354.15
20.93		40.35		1010977.91
20.94		40.27		1014733.70
20.94		40.20		1018630.31
20.95		40.12		1022648.20
20.96		40.04		1026803.04
20.97		39.96		1030905.35
20.98		39.88		1034976.78
20.98		39.80		1038830.41
20.99		39.73		1042485.51
21.00		39.67		1045662.32
21.01		39.62		1048524.47
21.02		39.57		1050893.97
21.03		39.53		1053109.52
21.03		39.50		1055009.22
21.04		39.46		1057013.05
21.05		39.42		1058906.07
21.06		39.38		1061142.86
21.06		39.34		1063381.86
21.08		39.29		1066041.30
21.08		39.24		1068688.49
21.09		39.19		1071780.29
21.10		39.13		1074817.14
21.11		39.07		1078294.67
21.11		39.01		1081640.48
21.13		38.94		1085381.43
21.14		38.87		1089045.21
21.14		38.81		1092597.86
21.15		38.75		1096106.28
21.16		38.69		1099556.01
21.17		38.63		1103086.78
21.18		38.57		1106522.73
21.19		38.51		1109841.68
21.19		38.46		1112788.00
21.20		38.41		1115540.53
21.21		38.37		1117894.66
21.22		38.33		1120105.79
21.22		38.30		1121908.55
21.24		38.27		1123667.93
21.24		38.25		1125106.86
21.25		38.22		1126680.29
21.26		38.20		1128089.06
21.27		38.17		1129841.54
21.27		38.14		1131544.24
21.29		38.10		1133706.97
21.29		38.07		1135796.94
21.30		38.02		1138366.72
21.30		37.98		1140782.43
21.32		37.94		1143574.55
21.33		37.89		1146208.41
21.34		37.85		1148636.56
21.34		37.82		1150833.08
21.35		37.78		1152742.29
21.36		37.76		1154464.13
21.37		37.73		1155921.39
21.38		37.71		1157270.31
21.38		37.69		1158401.84
21.39		37.67		1159571.63
21.40		37.66		1160616.46
21.41		37.64		1161824.99
21.42		37.62		1162940.85
21.43		37.60		1164286.79
21.43		37.58		1165510.08
21.44		37.55		1166990.67
21.45		37.53		1168345.71
21.46		37.50		1170041.11
21.46		37.48		1171652.06
21.48		37.45		1173666.43
21.48		37.42		1175538.28
21.49		37.38		1177655.36
21.50		37.36		1179132.21
21.51		37.34		1180437.25
21.52		37.33		1181239.07
21.53		37.32		1181695.88
21.54		37.32		1181903.80
21.54		37.32		1181885.26
21.55		37.32		1181708.09
21.56		37.32		1181365.98
21.57		37.33		1181016.84
21.58		37.34		1180596.41
21.59		37.34		1180317.25
21.59		37.35		1180035.41
21.60		37.35		1179948.41
21.61		37.35		1179784.84
21.62		37.35		1179797.17
21.62		37.35		1179630.03
21.64		37.35		1179617.34
21.64		37.36		1179391.12
21.65		37.36		1179371.04
21.66		37.36		1179099.59
21.67		37.36		1179046.06
21.67		37.37		1178717.32
21.69		37.37		1178665.32
21.69		37.37		1178353.12
21.70		37.37		1178381.96
21.70		37.38		1178154.15
21.72		37.37		1178311.94
21.73		37.37		1178361.40
21.74		37.37		1178257.76
21.74		37.38		1177942.76
21.75		37.39		1177333.59
21.76		37.40		1176490.88
21.77		37.42		1175354.25
21.78		37.44		1174116.51
21.78		37.46		1172701.03
21.79		37.48		1171424.52
21.80		37.50		1170039.85
21.81		37.52		1168881.66
21.82		37.54		1167698.84
21.83		37.56		1166810.34
21.83		37.57		1165901.63
21.84		37.58		1165314.22
21.85		37.59		1164660.40
21.86		37.60		1164307.39
21.86		37.60		1163806.91
21.88		37.61		1163573.76
21.88		37.62		1163144.85
21.89		37.62		1163050.29
21.90		37.62		1162766.90
21.91		37.62		1162860.74
21.91		37.62		1162744.80
21.93		37.62		1162993.20
21.94		37.62		1163143.67
21.94		37.61		1163194.97
21.95		37.62		1163130.59
21.96		37.62		1162876.10
21.97		37.63		1162527.41
21.98		37.63		1161982.89
21.99		37.64		1161353.52
21.99		37.66		1160520.87
22.00		37.67		1159754.18
22.01		37.69		1158851.20
22.02		37.70		1158139.94
22.02		37.71		1157340.79
22.04		37.72		1156798.85
22.04		37.73		1156162.88
22.05		37.73		1155823.86
22.06		37.74		1155380.34
22.07		37.74		1155276.12
22.07		37.75		1155068.54
22.09		37.74		1155297.75
22.09		37.74		1155417.23
22.10		37.73		1155986.14
22.10		37.73		1156398.74
22.12		37.71		1157238.58
22.13		37.70		1158030.58
22.14		37.69		1158763.20
22.14		37.68		1159432.53
22.15		37.67		1160026.48
22.16		37.66		1160586.33
22.17		37.65		1161033.79
22.18		37.64		1161486.84
22.18		37.64		1161796.63
22.19		37.63		1162153.73
22.20		37.63		1162300.16
22.21		37.63		1162480.78
22.22		37.63		1162482.42
22.23		37.62		1162593.27
22.23		37.62		1162571.69
22.24		37.62		1162731.78
22.25		37.62		1162732.03
22.26		37.62		1162976.21
22.26		37.62		1162987.95
22.28		37.61		1163229.95
22.28		37.61		1163185.79
22.29		37.61		1163406.25
22.30		37.61		1163369.34
22.31		37.61		1163719.37
22.32		37.60		1164033.33
22.33		37.60		1164328.48
22.34		37.59		1164622.22
22.34		37.59		1164909.57
22.35		37.58		1165252.53
22.36		37.58		1165598.41
22.37		37.57		1166001.21
22.38		37.56		1166287.38
22.39		37.56		1166539.97
22.39		37.56		1166482.32
22.40		37.57		1166277.27
22.41		37.57		1165698.57
22.42		37.58		1165092.15
22.51		37.27		1184950.01
22.51		37.02		1201191.72
22.52		36.83		1213082.92
22.53		36.72		1220267.58
22.54		36.69		1222731.39
22.54		36.72		1220764.33
22.55		36.81		1214922.76
22.56		36.94		1206014.83
22.58		37.09		1196111.55
22.59		37.28		1184346.06
22.59		37.48		1171560.86
22.60		37.70		1158197.39
22.61		37.92		1144647.17
22.62		38.15		1130932.77
22.63		38.37		1117677.55
22.63		38.60		1104692.67
22.64		38.82		1092297.19
22.65		39.03		1080144.50
22.66		39.24		1068579.46
22.66		39.45		1057222.14
22.68		39.66		1046450.91
22.68		39.86		1035857.33
22.69		40.05		1025850.34
22.70		40.25		1015994.38
22.71		40.43		1006726.89
22.71		40.62		997587.85
22.73		40.79		989045.49
22.74		40.96		980748.32
22.74		41.13		972688.28
22.75		41.30		964858.82
22.76		41.46		957231.43
22.77		41.63		949841.37
22.78		41.78		942625.27
22.79		41.94		935653.33
22.79		42.09		928829.21
22.80		42.24		922259.85
22.81		42.39		915815.41
22.82		42.54		909638.04
22.82		42.68		903563.81
22.84		42.82		897767.13
22.84		42.95		892056.51
22.85		43.08		886637.06
22.86		43.21		881285.13
22.87		43.34		876247.11
22.87		43.46		871263.83
22.89		43.58		866609.69
22.89		43.69		861998.64
22.90		43.80		857730.84
22.90		43.91		853497.10
22.92		44.01		849622.80
22.93		44.11		845873.24
22.94		44.20		842245.75
22.94		44.30		838739.15
22.95		44.39		835330.84
22.96		44.47		832058.71
22.97		44.56		828882.41
22.98		44.64		825837.00
22.98		44.72		822861.33
22.99		44.80		820044.15
23.00		44.87		817282.59
23.01		44.95		814693.87
23.02		45.02		812149.58
23.03		45.08		809792.64
23.03		45.15		807471.49
23.04		45.21		805349.52
23.05		45.26		803254.01
23.06		45.32		801374.38
23.06		45.37		799516.03
23.08		45.42		797881.94
23.08		45.46		796258.36
23.09		45.50		794897.56
23.10		45.54		793542.51
23.11		45.57		792472.63
23.11		45.60		791404.72
23.13		45.62		790642.52
23.14		45.64		789966.33
23.14		45.66		789370.01
23.15		45.68		788866.27
23.16		45.69		788424.80
23.17		45.70		788094.01
23.18		45.71		787814.59
23.19		45.71		787661.95
23.19		45.71		787552.86
23.20		45.71		787582.32
23.21		45.71		787579.35
23.22		45.71		787530.28
23.22		45.72		787273.78
23.24		45.73		787003.11
23.24		45.74		786625.74
23.25		45.75		786389.79
23.26		45.75		786155.68
23.27		45.75		786147.57
23.27		45.75		786147.19
23.29		45.75		786398.42
23.29		45.74		786654.24
23.30		45.72		787178.67
23.30		45.71		787706.52
23.32		45.69		788523.59
23.33		45.66		789429.66
23.34		45.63		790424.79
23.34		45.60		791510.35
23.35		45.57		792673.31
23.36		45.53		793941.20
23.37		45.49		795276.98
23.38		45.45		796736.23
23.38		45.41		798251.39
23.39		45.36		799910.78
23.40		45.31		801630.15
23.41		45.26		803493.72
23.42		45.20		805404.39
23.43		45.15		807488.69
23.43		45.09		809604.93
23.44		45.02		811940.70
23.45		44.96		814228.90
23.46		44.89		816576.40
23.46		44.84		818646.02
23.48		44.78		820663.85
23.48		44.73		822448.17
23.49		44.68		824308.95
23.50		44.64		826039.55
23.51		44.58		827933.40
23.51		44.54		829676.62
23.53		44.49		831572.06
23.54		44.44		833397.72
23.54		44.39		835168.26
23.55		44.34		836943.74
23.56		44.30		838713.76
23.57		44.25		840558.67
23.58		44.20		842415.40
23.59		44.15		844284.29
23.59		44.11		845906.49
23.60		44.07		847336.28
23.61		44.04		848504.59
23.62		44.01		849608.41
23.62		43.99		850382.78
23.64		43.98		850822.60
23.64		43.98		850758.57
23.65		43.98		850766.58
23.66		43.98		850795.49
23.67		43.98		850985.57
23.67		43.98		850928.57
23.69		43.98		850801.25
23.69		43.99		850320.12
23.70		44.01		849847.27
23.70		44.02		849158.63
23.72		44.04		848671.19
23.73		44.05		848209.67
23.74		44.06		847805.81
23.74		44.07		847468.98
23.75		44.08		847186.29
23.76		44.08		846917.30
23.77		44.09		846609.95
23.78		44.10		846365.76
23.78		44.10		846137.67
23.79		44.11		845971.10
23.80		44.11		845745.89
23.81		44.12		845561.62
23.82		44.12		845370.97
23.83		44.12		845385.26
23.83		44.12		845410.69
23.84		44.12		845600.59
23.85		44.11		845765.56
23.86		44.10		846127.30
23.86		44.10		846276.69
23.88		44.10		846163.61
23.88		44.12		845428.65
23.89		44.15		844365.09
23.90		44.19		842800.77
23.91		44.23		841161.06
23.91		44.28		839317.69
23.93		44.32		837792.29
23.94		44.36		836341.51
23.94		44.40		834937.84
23.95		44.43		833550.56
23.96		44.47		832126.81
23.97		44.51		830639.89
23.98		44.57		828638.88
23.99		44.64		825898.60
23.99		44.74		822275.95
24.00		44.85		818149.66
24.01		44.97		813831.93
24.02		45.08		809774.42
24.02		45.19		805878.13
24.04		45.29		802245.27
24.04		45.39		798653.42
24.05		45.49		795304.07
24.06		45.59		791986.67
24.07		45.67		788921.23
24.07		45.76		785875.56
24.09		45.84		783109.78
24.09		45.92		780356.87
24.10		46.00		777893.23
24.10		46.07		775436.67
24.12		46.13		773285.84
24.13		46.19		771224.63
24.14		46.25		769245.62
24.14		46.31		767282.79
24.15		46.37		765305.03
24.16		46.43		763356.67
24.17		46.49		761432.48
24.18		46.54		759748.35
24.18		46.58		758378.57
24.19		46.62		757318.85
24.20		46.66		755949.80
24.21		46.72		754142.28
24.22		46.78		752094.19
24.23		46.82		750857.31
24.23		46.83		750396.20
24.24		46.83		750470.80
24.25		46.83		750512.62
24.26		46.83		750607.78
24.26		46.82		750626.57
24.28		46.82		750822.03
24.28		46.81		751142.85
24.29		46.78		751999.74
24.30		46.74		753352.99
24.31		46.67		755470.03
24.31		46.60		757787.60
24.33		46.52		760343.24
24.34		46.45		762891.85
24.34		46.37		765525.47
24.35		46.28		768379.59
24.36		46.19		771334.94
24.37		46.10		774405.35
24.38		46.01		777528.78
24.39		45.91		780769.48
24.39		45.82		784057.32
24.40		45.72		787493.47
24.41		45.61		790983.80
24.42		45.51		794650.40
24.42		45.40		798363.50
24.44		45.29		802280.86
24.44		45.18		806218.87
24.45		45.07		810239.95
24.46		44.96		814099.86
24.47		44.85		817998.54
24.47		44.75		821739.65
24.49		44.65		825599.14
24.49		44.55		829356.70
24.50		44.45		833027.56
24.50		44.37		836113.64
24.52		44.29		838996.06
24.53		44.22		841529.21
24.54		44.17		843669.41
24.54		44.12		845352.74
24.55		44.09		846574.11
24.56		44.07		847487.36
24.57		44.05		848218.78
24.58		44.03		849009.43
24.58		44.01		849808.64
24.59		43.98		850718.02
24.60		43.96		851651.13
24.61		43.93		852738.62
24.62		43.90		853854.71
24.63		43.87		855162.51
24.63		43.83		856527.61
24.64		43.79		858126.94
24.65		43.75		859771.86
24.66		43.70		861644.43
24.66		43.65		863736.58
24.68		43.59		866261.05
24.68		43.52		868842.53
24.69		43.46		871529.71
24.70		43.39		873974.12
24.71		43.33		876387.19
24.71		43.28		878519.68
24.73		43.23		880765.54
24.74		43.17		882998.72
24.74		43.12		885258.41
24.75		43.06		887569.12
24.76		43.01		889859.53
24.77		42.95		892049.20
24.78		42.91		893959.25
24.79		42.87		895648.94
24.79		42.83		897146.23
24.80		42.79		898711.39
24.81		42.76		900314.95
24.82		42.71		902226.87
24.82		42.66		904395.60
24.84		42.60		906946.32
24.84		42.54		909555.94
24.85		42.47		912269.07
24.86		42.41		914861.35
24.87		42.35		917553.80
24.87		42.29		920117.31
24.89		42.23		922827.05
24.89		42.17		925283.08
24.90		42.12		927606.25
24.90		42.08		929586.91
24.92		42.03		931761.30
24.93		41.97		934093.82
24.94		41.92		936538.93
24.94		41.87		938866.86
24.95		41.83		940707.72
24.96		41.81		941687.23
24.97		41.80		941758.11
24.98		41.82		941141.11
24.98		41.84		939952.71
24.99		41.88		938436.42
25.00		41.92		936737.62
25.01		41.95		935213.55
25.02		41.98		933826.85
25.03		42.01		932713.55
25.03		42.03		931651.44
25.04		42.05		930659.24
25.05		42.08		929439.80
25.06		42.11		928160.33
25.06		42.14		926691.18
25.08		42.17		925441.99
25.08		42.20		924198.36
25.09		42.22		923220.05
25.10		42.24		922243.40
25.11		42.26		921558.65
25.11		42.27		920879.42
25.13		42.28		920490.34
25.14		42.29		920200.52
25.14		42.30		920002.71
25.15		42.30		919911.58
25.16		42.30		919892.45
25.17		42.30		919990.04
25.18		42.29		920109.28
25.19		42.29		920235.50
25.19		42.29		920279.10
25.20		42.29		920371.46
25.21		42.28		920450.60
25.22		42.28		920676.65
25.22		42.27		920944.85
25.24		42.26		921425.08
25.24		42.25		921966.20
25.25		42.23		922710.70
25.26		42.21		923518.97
25.27		42.19		924612.26
25.27		42.16		925835.56
25.29		42.13		927420.10
25.29		42.09		929096.61
25.30		42.04		931081.54
25.30		42.00		933079.57
25.32		41.95		935376.02
25.33		41.89		937757.66
25.34		41.84		940101.17
25.34		41.79		942371.04
25.35		41.74		944588.34
25.36		41.69		946778.93
25.37		41.65		948868.09
25.38		41.60		950881.16
25.38		41.56		952740.84
25.39		41.52		954565.96
25.40		41.48		956297.90
25.41		41.46		957562.32
25.42		41.45		958073.11
25.43		41.44		958519.52
25.43		41.43		959006.19
25.44		41.41		959635.67
25.45		41.40		960029.92
25.46		41.40		960244.88
25.46		41.40		960054.53
25.48		41.41		959921.70
25.48		41.41		959873.06
25.49		41.40		960251.65
25.50		41.39		960738.37
25.51		41.37		961396.94
25.51		41.37		961637.30
25.53		41.37		961715.80
25.54		41.37		961500.89
25.54		41.38		961091.07
25.55		41.39		960620.97
25.56		41.40		960115.67
25.57		41.41		959678.44
25.58		41.42		959256.79
25.59		41.43		958869.01
25.59		41.44		958471.60
25.60		41.44		958173.47
25.61		41.45		957827.34
25.62		41.46		957510.80
25.62		41.47		957134.05
25.64		41.47		956906.82
25.64		41.47		956773.53
25.65		41.47		956995.13
25.66		41.46		957363.86
25.67		41.45		958017.41
25.67		41.43		958648.03
25.69		41.42		959462.23
25.69		41.40		960193.38
25.70		41.38		961084.16
25.70		41.36		961908.45
25.72		41.34		963008.49
25.72		41.31		964176.01
25.74		41.28		965728.58
25.74		41.24		967466.57
25.75		41.20		969369.03
25.76		41.16		971433.51
25.77		41.11		973641.42
25.78		41.06		976042.61
25.78		41.01		978618.60
25.79		40.95		981459.81
25.80		40.89		984492.53
25.81		40.82		987783.21
25.82		40.75		991191.55
25.83		40.67		994783.75
25.83		40.60		998355.43
25.84		40.53		1002064.81
25.85		40.45		1005761.60
25.86		40.37		1009634.56
25.86		40.28		1014289.44
25.88		40.15		1020829.56
25.88		40.00		1028456.74
25.89		39.85		1036341.26
25.90		39.72		1043394.91
25.91		39.60		1049545.05
25.91		39.50		1054669.76
25.93		39.41		1059699.22
25.94		39.31		1065039.35
25.94		39.21		1070719.19
25.95		39.10		1076685.32
25.96		38.98		1082893.20
25.97		38.87		1089407.68
25.98		38.75		1096052.16
25.99		38.63		1102672.35
25.99		38.52		1109026.94
26.00		38.42		1115176.98
26.01		38.32		1121013.71
26.02		38.22		1126726.91
26.02		38.13		1132132.86
26.04		38.04		1137449.40
26.04		37.95		1142587.93
26.05		37.87		1147804.00
26.06		37.78		1152890.41
26.07		37.70		1158149.32
26.07		37.61		1163422.42
26.09		37.52		1169046.07
26.09		37.43		1174764.31
26.10		37.33		1180841.53
26.10		37.24		1186931.07
26.12		37.14		1193374.17
26.12		37.04		1199839.52
26.14		36.93		1206710.00
26.14		36.82		1213776.55
26.15		36.71		1221041.27
26.16		36.60		1228548.52
26.17		36.49		1236227.93
26.18		36.37		1244132.89
26.18		36.25		1252151.71
26.19		36.14		1260392.54
26.20		36.02		1268660.59
26.21		35.91		1276603.47
26.22		35.81		1283679.75
26.23		35.72		1290052.26
26.23		35.65		1294992.91
26.24		35.60		1298527.70
26.25		35.57		1300523.07
26.26		35.56		1301542.35
26.26		35.56		1301656.89
26.28		35.56		1301389.97
26.28		35.57		1300600.82
26.29		35.58		1299882.01
26.30		35.59		1299027.30
26.31		35.60		1298615.91
26.31		35.61		1297956.92
26.33		35.62		1297355.77
26.33		35.63		1296579.56
26.34		35.63		1296256.30
26.35		35.63		1296253.82
26.36		35.63		1296505.99
26.37		35.62		1297057.63
26.38		35.61		1297785.67
26.39		35.60		1298683.44
26.39		35.59		1299527.05
26.40		35.57		1300432.70
26.41		35.56		1301294.35
26.42		35.55		1302306.56
26.42		35.53		1303816.77
26.44		35.49		1306345.31
26.44		35.45		1309678.45
26.45		35.40		1313217.40
26.46		35.36		1315983.80
26.47		35.34		1317752.43
26.47		35.33		1318345.84
26.49		35.33		1318390.27
26.49		35.34		1317824.42
26.50		35.35		1317168.46
26.50		35.36		1316156.73
26.52		35.37		1315260.31
26.53		35.39		1314302.43
26.54		35.40		1313301.38
26.54		35.41		1312551.93
26.55		35.41		1312515.14
26.56		35.40		1313010.27
26.57		35.40		1313551.02
26.58		35.39		1313846.11
26.58		35.39		1313699.92
26.59		35.40		1313202.72
26.60		35.41		1312287.51
26.61		35.43		1311064.28
26.62		35.45		1309470.10
26.63		35.47		1307926.18
26.63		35.49		1306544.16
26.64		35.50		1305647.89
26.65		35.51		1304943.50
26.66		35.52		1304536.06
26.66		35.52		1304103.15
26.68		35.53		1303950.63
26.68		35.53		1303832.20
26.69		35.52		1304074.62
26.70		35.52		1304348.37
26.71		35.51		1305060.92
26.71		35.50		1305872.12
26.73		35.48		1307110.33
26.73		35.47		1308223.74
26.74		35.45		1309488.15
26.75		35.44		1310641.88
26.76		35.42		1311678.78
26.77		35.41		1312571.24
26.78		35.40		1313247.78
26.79		35.39		1313806.68
26.79		35.39		1314207.75
26.80		35.38		1314664.88
26.81		35.38		1315149.25
26.82		35.36		1315906.68
26.82		35.35		1316805.44
26.84		35.34		1318012.48
26.84		35.32		1319258.24
26.85		35.30		1320633.02
26.86		35.29		1321734.43
26.87		35.27		1322654.78
26.87		35.27		1322966.87
26.89		35.27		1322907.16
26.89		35.28		1322220.07
26.90		35.29		1321342.20
26.90		35.31		1320001.37
26.92		35.33		1318596.92
26.93		35.35		1316927.19
26.94		35.38		1315087.75
26.94		35.40		1313174.15
26.95		35.43		1311243.25
26.96		35.45		1309389.58
26.97		35.48		1307686.79
26.98		35.50		1306233.34
26.98		35.51		1304942.79
26.99		35.53		1303899.48
27.00		35.54		1302880.85
27.01		35.56		1301858.63
27.02		35.57		1300570.73
27.03		35.59		1299152.36
27.03		35.62		1297447.52
27.04		35.64		1295688.13
27.05		35.67		1293783.72
27.06		35.69		1292006.39
27.06		35.72		1289991.46
27.08		35.75		1287988.91
27.08		35.78		1285708.40
27.09		35.81		1283708.51
27.10		35.83		1281947.88
27.11		35.85		1280574.40
27.11		35.87		1279037.45
27.13		35.89		1277453.51
27.13		35.92		1275403.47
27.14		35.95		1273243.44
27.15		35.99		1270810.75
27.16		36.02		1268206.68
27.17		36.06		1265581.77
27.18		36.10		1262930.60
27.19		36.14		1260350.28
27.19		36.17		1257740.23
27.20		36.21		1255236.51
27.21		36.25		1252749.77
27.22		36.28		1250458.32
27.22		36.31		1248331.37
27.24		36.33		1246762.25
27.24		36.35		1245736.64
27.25		36.35		1245442.17
27.26		36.35		1245451.67
27.27		36.35		1245764.34
27.27		36.34		1245975.32
27.29		36.34		1246342.91
27.29		36.33		1246928.95
27.30		36.31		1248205.96
27.30		36.29		1249751.73
27.32		36.26		1251722.96
27.32		36.23		1253638.04
27.34		36.20		1255683.43
27.34		36.18		1257465.62
27.35		36.16		1259005.18
27.36		36.14		1260411.00
27.37		36.12		1261797.13
27.38		36.09		1263261.01
27.38		36.07		1264768.09
27.39		36.05		1266392.59
27.40		36.03		1267522.74
27.41		36.02		1268221.02
27.42		36.02		1268463.81
27.43		36.02		1268503.02
27.43		36.02		1268269.49
27.44		36.03		1268027.84
27.45		36.03		1267589.06
27.46		36.04		1267294.32
27.46		36.04		1267029.99
27.48		36.04		1267166.08
27.48		36.04		1267397.55
27.49		36.03		1267908.81
27.50		36.02		1268367.06
27.51		36.01		1269121.06
27.51		36.00		1269836.84
27.53		35.99		1270838.39
27.54		35.97		1271760.19
27.54		35.96		1272483.46
27.55		35.96		1272994.79
27.56		35.95		1273286.12
27.57		35.95		1273470.95
27.58		35.95		1273444.98
27.59		35.95		1273246.40
27.59		35.96		1272630.35
27.60		35.97		1271737.12
27.61		35.99		1270634.53
27.62		36.00		1269654.09
27.62		36.02		1268758.73
27.64		36.02		1268148.20
27.64		36.03		1267584.39
27.65		36.04		1267169.05
27.66		36.05		1266610.13
27.67		36.05		1266118.75
27.67		36.06		1265476.08
27.69		36.07		1265004.20
27.69		36.08		1264468.03
27.70		36.08		1264211.45
27.70		36.08		1263916.04
27.72		36.09		1263891.72
27.73		36.09		1263853.25
27.74		36.09		1263721.11
27.74		36.09		1263452.68
27.75		36.10		1263056.15
27.76		36.10		1262921.69
27.77		36.09		1263374.72
27.78		36.08		1264233.22
27.78		36.07		1265075.03
27.79		36.06		1265727.63
27.80		36.06		1265964.78
27.81		36.06		1265925.53
27.82		36.06		1265567.54
27.83		36.07		1265152.50
27.83		36.08		1264592.28
27.84		36.08		1264125.26
27.85		36.09		1263577.80
27.86		36.09		1263274.30
27.86		36.10		1263026.49
27.88		36.10		1263103.87
27.88		36.10		1263177.61
27.89		36.09		1263453.81
27.92		36.08		1264578.35
27.92		36.06		1265713.03
27.93		36.04		1266866.50
27.93		36.03		1267863.22
27.94		36.01		1269002.61
27.95		36.00		1270004.59
27.96		35.99		1270840.24
27.97		35.98		1271569.04
27.98		35.97		1272234.47
27.99		35.96		1273009.85
27.99		35.94		1273813.33
28.00		35.93		1274669.71
28.01		35.92		1275373.48
28.02		35.91		1276101.99
28.02		35.90		1276769.75
28.04		35.89		1277556.34
28.04		35.88		1278260.10
28.05		35.87		1279017.33
28.06		35.86		1279524.89
28.07		35.86		1279950.88
28.07		35.86		1279973.70
28.09		35.86		1279842.68
28.09		35.87		1279356.69
28.10		35.87		1278926.30
28.10		35.88		1278393.17
28.12		35.88		1278217.39
28.12		35.88		1278143.33
28.14		35.88		1278531.69
28.14		35.87		1279105.00
28.15		35.86		1279819.25
28.16		35.85		1280666.53
28.17		35.83		1281654.50
28.18		35.82		1282827.04
28.18		35.80		1284109.60
28.19		35.78		1285537.85
28.20		35.76		1286967.83
28.21		35.74		1288471.30
28.22		35.72		1289874.67
28.23		35.70		1291355.47
28.23		35.68		1292758.04
28.24		35.66		1294317.63
28.25		35.64		1295832.51
28.26		35.61		1297566.49
28.26		35.59		1299213.57
28.28		35.57		1300886.90
28.28		35.55		1302342.95
28.29		35.53		1303966.38
28.30		35.51		1305504.50
28.31		35.48		1307338.61
28.32		35.46		1309153.70
28.33		35.43		1310854.47
28.34		35.41		1312394.31
28.34		35.39		1313748.11
28.35		35.38		1314922.01
28.36		35.37		1315846.45
28.37		35.36		1316577.92
28.38		35.35		1317044.39
28.39		35.35		1317309.19
28.39		35.35		1317271.50
28.40		35.35		1317076.17
28.41		35.36		1316585.71
28.42		35.36		1315934.18
28.42		35.38		1314969.55
28.44		35.39		1313928.07
28.44		35.41		1312663.90
28.45		35.42		1311455.33
28.46		35.44		1310115.52
28.47		35.46		1308948.55
28.47		35.47		1307753.99
28.49		35.49		1306903.82
28.49		35.50		1306096.71
28.50		35.50		1305643.99
28.50		35.51		1305180.27
28.52		35.51		1304982.14
28.53		35.52		1304703.95
28.54		35.52		1304336.24
28.54		35.53		1303863.51
28.55		35.54		1303246.59
28.56		35.55		1302501.25
28.57		35.56		1301706.44
28.58		35.57		1300989.69
28.58		35.58		1300244.72
28.59		35.59		1299548.06
28.60		35.60		1298791.96
28.61		35.61		1298125.94
28.62		35.62		1297391.20
28.63		35.63		1296746.70
28.63		35.64		1296011.64
28.64		35.64		1295445.80
28.65		35.65		1294860.88
28.66		35.66		1294485.57
28.66		35.66		1294058.38
28.68		35.67		1293841.91
28.68		35.67		1293569.78
28.69		35.67		1293556.82
28.70		35.67		1293512.73
28.71		35.67		1293793.84
28.71		35.66		1294081.37
28.73		35.65		1294758.12
28.74		35.64		1295585.24
28.74		35.63		1296492.30
28.75		35.62		1297351.17
28.76		35.61		1297944.69
28.77		35.61		1298189.85
28.78		35.61		1298036.27
28.79		35.61		1297674.30
28.79		35.62		1297160.10
28.80		35.63		1296707.85
28.81		35.63		1296249.84
28.82		35.64		1295939.61
28.82		35.64		1295603.85
28.84		35.64		1295391.95
28.84		35.65		1295097.89
28.85		35.65		1294919.37
28.86		35.65		1294642.49
28.87		35.66		1294512.40
28.87		35.66		1294285.13
28.89		35.66		1294273.33
28.89		35.66		1294291.44
28.90		35.65		1294692.24
28.90		35.65		1295158.37
28.92		35.64		1295981.65
28.93		35.62		1296868.12
28.94		35.61		1297727.27
28.94		35.60		1298509.68
28.95		35.59		1299094.01
28.96		35.59		1299458.35
28.97		35.59		1299586.49
28.98		35.59		1299656.92
28.98		35.59		1299650.86
28.99		35.58		1299684.34
29.00		35.59		1299631.29
29.01		35.59		1299617.44
29.02		35.59		1299512.61
29.03		35.59		1299470.67
29.03		35.59		1299345.41
29.04		35.59		1299329.33
29.05		35.59		1299184.31
29.06		35.59		1299084.52
29.06		35.60		1298766.71
29.08		35.60		1298475.04
29.08		35.61		1297996.80
29.09		35.61		1297668.54
29.10		35.62		1297221.90
29.11		35.62		1296970.02
29.11		35.63		1296596.51
29.13		35.63		1296429.25
29.14		35.63		1296229.53
29.14		35.64		1295975.68
29.15		35.64		1295651.01
29.16		35.65		1295226.61
29.17		35.65		1294744.00
29.18		35.66		1294151.58
29.19		35.67		1293542.61
29.19		35.68		1292846.71
29.20		35.69		1292169.12
29.21		35.70		1291420.20
29.22		35.71		1290768.35
29.22		35.72		1290098.89
29.24		35.72		1289574.79
29.24		35.73		1289027.17
29.25		35.74		1288662.95
29.26		35.74		1288262.61
29.27		35.75		1288051.74
29.27		35.75		1287778.79
29.29		35.75		1287708.94
29.29		35.75		1287556.76
29.30		35.75		1287627.61
29.30		35.75		1287609.32
29.32		35.75		1287838.07
29.32		35.75		1287970.10
29.34		35.74		1288337.13
29.34		35.74		1288711.80
29.35		35.73		1289088.70
29.36		35.73		1289468.91
29.37		35.72		1289837.83
29.38		35.71		1290238.53
29.38		35.71		1290623.56
29.39		35.70		1291086.73
29.40		35.70		1291551.40
29.41		35.69		1292104.50
29.42		35.68		1292609.87
29.43		35.67		1293177.52
29.43		35.67		1293627.91
29.44		35.66		1294098.07
29.45		35.66		1294394.04
29.46		35.65		1294764.65
29.46		35.65		1295004.59
29.48		35.64		1295377.25
29.48		35.64		1295582.69
29.49		35.64		1295910.39
29.50		35.63		1296051.70
29.51		35.63		1296343.58
29.51		35.63		1296449.12
29.53		35.63		1296740.48
29.54		35.62		1297013.18
29.54		35.62		1297296.06
29.55		35.61		1297623.07
29.56		35.61		1297972.59
29.57		35.60		1298382.69
29.58		35.60		1298813.81
29.59		35.59		1299320.86
29.59		35.58		1299858.55
29.60		35.57		1300506.24
29.61		35.56		1301143.58
29.62		35.56		1301847.91
29.62		35.55		1302407.41
29.64		35.54		1302966.98
29.64		35.54		1303321.25
29.65		35.53		1303688.49
29.66		35.53		1303857.83
29.67		35.52		1304100.15
29.67		35.52		1304205.64
29.69		35.52		1304464.60
29.69		35.52		1304591.14
29.70		35.51		1304901.05
29.70		35.51		1305084.67
29.72		35.51		1305479.09
29.73		35.50		1305838.38
29.74		35.50		1306131.94
29.74		35.49		1306332.42
29.75		35.49		1306410.91
29.76		35.49		1306391.90
29.77		35.50		1306241.85
29.78		35.50		1306034.71
29.78		35.50		1305711.09
29.79		35.51		1305363.77
29.80		35.51		1304889.45
29.81		35.52		1304387.93
29.82		35.53		1303722.55
29.83		35.54		1303073.79
29.83		35.55		1302303.73
29.84		35.56		1301574.27
29.85		35.57		1300722.02
29.86		35.58		1299946.06
29.86		35.59		1299065.02
29.88		35.60		1298317.29
29.88		35.61		1297491.27
29.89		35.62		1296857.63
29.90		35.63		1296158.42
29.91		35.64		1295679.92
29.92		35.65		1295234.89
29.93		35.65		1294808.92
29.94		35.66		1294385.24
29.94		35.66		1293945.50
29.95		35.67		1293505.54
29.96		35.68		1293034.64
29.97		35.68		1292589.50
29.98		35.69		1292129.71
29.99		35.69		1291706.71
29.99		35.70		1291242.12
30.00		35.71		1290844.96
30.01		35.71		1290374.35
30.02		35.72		1289882.44
30.02		35.73		1289079.81
30.04		35.75		1288039.15
30.04		35.77		1286561.98
30.05		35.79		1284976.61
30.06		35.81		1283254.62
30.07		35.83		1281856.77
30.07		35.85		1280687.12
30.09		35.86		1279998.13
30.09		35.86		1279582.36
30.10		35.86		1279882.76
30.10		35.85		1280818.82
30.12		35.82		1282795.92
30.12		35.78		1285666.01
30.14		35.72		1289843.70
30.14		35.65		1295072.16
30.15		35.56		1301176.51
30.16		35.47		1307885.13
30.17		35.38		1314929.97
30.18		35.28		1322282.52
30.18		35.18		1329869.99
30.19		35.08		1337714.99
30.20		34.97		1345651.84
30.21		34.87		1353756.97
30.22		34.77		1361688.66
30.23		34.67		1368925.65
30.23		34.60		1374941.71
30.24		34.53		1380124.75
30.25		34.47		1384858.95
30.26		34.41		1389781.81
30.26		34.35		1394668.34
30.28		34.29		1399573.30
30.28		34.24		1403922.13
30.29		34.19		1407771.16
30.30		34.16		1410639.64
30.31		34.13		1412949.97
30.31		34.11		1414648.75
30.33		34.09		1416381.99
30.33		34.07		1417998.69
30.34		34.05		1419888.97
30.35		34.02		1421667.84
30.36		34.01		1423145.97
30.37		33.99		1424281.05
30.38		33.98		1425379.27
30.39		33.97		1426468.66
30.39		33.96		1427289.44
30.40		33.95		1428006.18
30.41		33.94		1428560.54
30.42		33.94		1429078.29
30.42		33.93		1429470.37
30.44		33.92		1429986.64
30.44		33.92		1430479.17
30.45		33.91		1431237.21
30.46		33.90		1432094.20
30.47		33.89		1433301.74
30.47		33.87		1434556.47
30.49		33.85		1436125.78
30.49		33.83		1437728.49
30.50		33.81		1439715.81
30.50		33.79		1441801.17
30.52		33.76		1444364.76
30.53		33.72		1447166.98
30.54		33.69		1450195.67
30.54		33.65		1453436.34
30.55		33.61		1456858.72
30.56		33.57		1460338.78
30.57		33.53		1463729.71
30.58		33.49		1467146.04
30.58		33.45		1470617.26
30.59		33.41		1474340.20
30.60		33.37		1478246.67
30.61		33.32		1482484.49
30.63		33.26		1487517.01
30.64		33.20		1492709.96
30.64		33.14		1498150.94
30.65		33.08		1503723.66
30.66		33.02		1509651.59
30.66		32.95		1515670.16
30.68		32.88		1521995.81
30.68		32.82		1528230.23
30.69		32.75		1534576.83
30.70		32.68		1540784.88
30.71		32.61		1547267.09
30.71		32.55		1553810.32
30.73		32.47		1560780.16
30.73		32.40		1567796.22
30.74		32.32		1575192.21
30.75		32.25		1582798.15
30.76		32.17		1590582.28
30.77		32.09		1598571.60
30.78		32.01		1606657.51
30.79		31.92		1614870.37
30.79		31.84		1623080.48
30.80		31.76		1631390.34
30.81		31.68		1639720.46
30.82		31.60		1647739.84
30.82		31.53		1655246.24
30.84		31.46		1663063.00
30.84		31.38		1671054.78
30.85		31.31		1679247.15
30.86		31.23		1687103.60
30.87		31.16		1694753.14
30.87		31.10		1701893.52
30.89		31.03		1708983.02
30.89		30.97		1715859.09
30.90		30.91		1722878.60
30.90		30.85		1729687.45
30.92		30.78		1736838.97
30.93		30.72		1744307.69
30.94		30.65		1752350.33
30.94		30.57		1761078.38
30.95		30.49		1770351.20
30.96		30.41		1779784.69
30.97		30.33		1789036.83
30.98		30.25		1798037.95
30.98		30.18		1806681.31
30.99		30.11		1815129.82
31.00		30.04		1823334.84
31.01		29.98		1831510.33
31.02		29.91		1839571.41
31.03		29.84		1847707.67
31.03		29.78		1855712.89
31.04		29.71		1863913.84
31.05		29.65		1872112.04
31.06		29.58		1880695.40
31.06		29.51		1889413.94
31.08		29.44		1898592.65
31.08		29.37		1907802.29
31.09		29.30		1917419.76
31.10		29.22		1926997.67
31.11		29.15		1936975.75
31.11		29.07		1946951.58
31.13		29.00		1957546.70
31.14		28.91		1968532.10
31.14		28.83		1979898.07
31.15		28.75		1991543.70
31.16		28.66		2003286.10
31.17		28.58		2015167.21
31.18		28.49		2027251.60
31.19		28.40		2039841.51
31.19		28.31		2052988.06
31.20		28.22		2066554.24
31.21		28.13		2080080.37
31.22		28.04		2093578.36
31.22		27.95		2106746.16
31.24		27.86		2119798.16
31.24		27.78		2132436.75
31.25		27.69		2145997.84
31.26		27.60		2160962.03
31.27		27.49		2177559.57
31.27		27.38		2194782.49
31.29		27.27		2213258.32
31.29		27.15		2233433.34
31.30		27.01		2256152.53
31.30		26.86		2280688.08
31.32		26.71		2306692.91
31.32		26.56		2332680.90
31.34		26.41		2358906.28
31.34		26.28		2383373.77
31.35		26.16		2405277.37
31.36		26.05		2424806.30
31.37		25.96		2442223.82
31.38		25.88		2457946.37
31.38		25.80		2472280.93
31.39		25.72		2487220.88
31.40		25.64		2503333.67
31.41		25.55		2520932.76
31.42		25.46		2539139.59
31.43		25.37		2557465.32
31.43		25.28		2574871.84
31.44		25.20		2591331.73
31.45		25.13		2606242.14
31.46		25.06		2620180.39
31.46		25.00		2633074.54
31.48		24.94		2645170.12
31.48		24.90		2655441.66
31.49		24.85		2664948.22
31.50		24.81		2673245.70
31.51		24.78		2681072.04
31.51		24.74		2688004.63
31.53		24.71		2694957.48
31.54		24.69		2700413.13
31.54		24.67		2703966.12
31.55		24.66		2705607.71
31.56		24.66		2705372.04
31.57		24.67		2703245.28
31.58		24.69		2699813.60
31.59		24.71		2695812.44
31.59		24.73		2691169.80
31.60		24.75		2686225.36
31.61		24.77		2681297.16
31.62		24.80		2676774.31
31.62		24.82		2672394.03
31.64		24.83		2668530.93
31.64		24.85		2664648.55
31.65		24.87		2661044.89
31.66		24.89		2657471.95
31.67		24.90		2654532.83
31.67		24.91		2651823.79
31.69		24.92		2649810.40
31.69		24.93		2647908.37
31.70		24.94		2646657.52
31.70		24.94		2645414.69
31.72		24.94		2644900.02
31.72		24.94		2644947.31
31.74		24.94		2646348.07
31.74		24.91		2651722.36
31.75		24.86		2662840.34
31.76		24.80		2676905.95
31.77		24.73		2691416.64
31.78		24.66		2705550.91
31.78		24.61		2717221.89
31.79		24.59		2722586.33
31.80		24.60		2720312.41
31.81		24.63		2712738.63
31.82		24.67		2704161.02
31.83		24.71		2696305.89
31.83		24.74		2688621.16
31.84		24.78		2681014.74
31.85		24.82		2672505.14
31.86		24.86		2663238.08
31.86		24.91		2652451.72
31.88		24.97		2640379.17
31.88		25.03		2626199.21
31.89		25.11		2611137.79
31.90		25.18		2595679.29
31.91		25.25		2581042.82
31.91		25.32		2566773.99
31.93		25.39		2553692.69
31.94		25.45		2541304.61
31.94		25.51		2529488.30
31.95		25.57		2518073.91
31.96		25.62		2506833.26
31.97		25.67		2496671.68
31.98		25.72		2487940.25
31.99		25.75		2481938.54
31.99		25.77		2479046.36
32.00		25.77		2478268.32
32.01		25.77		2478068.93
32.02		25.77		2477838.54
32.02		25.78		2477113.38
32.04		25.78		2476501.36
32.04		25.78		2476087.29
32.05		25.78		2476336.91
32.06		25.78		2476742.45
32.07		25.77		2477431.08
32.07		25.77		2477724.55
32.09		25.77		2477996.84
32.09		25.77		2477616.84
32.10		25.78		2477133.99
32.10		25.78		2475954.44
32.12		25.79		2474743.10
32.12		25.80		2473293.62
32.14		25.80		2472762.77
32.14		25.80		2472953.71
32.15		25.79		2473678.88
32.16		25.79		2474637.12
32.17		25.78		2475499.22
32.18		25.78		2476469.07
32.18		25.77		2477611.68
32.19		25.77		2479181.09
32.20		25.76		2481046.84
32.21		25.74		2483362.94
32.22		25.73		2485823.00
32.23		25.72		2488621.81
32.23		25.70		2491457.08
32.24		25.68		2494683.08
32.25		25.67		2497936.30
32.26		25.65		2501615.54
32.26		25.63		2505311.56
32.28		25.61		2509526.53
32.28		25.59		2513955.15
32.29		25.56		2519170.45
32.30		25.53		2524568.18
32.31		25.50		2530637.86
32.31		25.47		2536722.07
32.33		25.44		2543441.06
32.34		25.40		2550364.07
32.34		25.36		2558728.12
32.35		25.31		2569499.40
32.36		25.24		2582646.19
32.37		25.17		2597573.10
32.38		25.09		2613532.26
32.39		25.01		2630535.56
32.39		24.93		2648299.32
32.40		24.84		2666866.93
32.41		24.75		2685902.84
32.42		24.67		2703842.84
32.42		24.60		2718925.90
32.44		24.55		2729566.87
32.44		24.53		2734986.82
32.45		24.53		2735713.75
32.46		24.54		2732815.33
32.47		24.55		2731599.71
32.47		24.54		2733672.44
32.49		24.51		2738868.02
32.49		24.49		2745021.73
32.50		24.46		2751429.39
32.50		24.43		2756660.79
32.52		24.41		2761154.41
32.53		24.40		2764538.86
32.54		24.39		2767045.83
32.54		24.38		2768623.99
32.55		24.38		2769200.10
32.56		24.38		2768849.03
32.57		24.39		2767486.31
32.58		24.40		2765185.99
32.58		24.41		2761754.88
32.59		24.43		2757449.96
32.60		24.45		2752322.92
32.61		24.48		2747009.46
32.62		24.50		2741628.88
32.63		24.52		2736761.54
32.63		24.54		2732158.55
32.64		24.56		2728076.25
32.65		24.58		2723938.49
32.66		24.60		2720034.60
32.66		24.62		2715959.49
32.68		24.63		2712391.95
32.68		24.65		2708936.68
32.69		24.66		2706185.68
32.70		24.67		2703671.06
32.71		24.68		2702062.90
32.71		24.69		2700797.67
32.73		24.69		2700541.75
32.74		24.69		2700763.48
32.74		24.68		2701389.40
32.75		24.68		2702415.63
32.76		24.67		2703776.13
32.77		24.66		2705678.87
32.78		24.65		2708356.58
32.79		24.63		2712098.28
32.79		24.61		2716922.58
32.80		24.59		2721841.13
32.81		24.57		2726073.90
32.82		24.55		2729812.39
32.82		24.54		2732891.40
32.84		24.53		2735727.46
32.84		24.52		2737826.90
32.85		24.51		2739462.55
32.86		24.51		2740174.06
32.87		24.51		2740390.20
32.87		24.51		2739632.89
32.89		24.52		2738434.31
32.89		24.53		2736141.62
32.90		24.54		2732669.26
32.90		24.56		2727573.48
32.92		24.59		2722033.96
32.92		24.62		2716120.71
32.94		24.64		2710914.88
32.94		24.66		2706119.90
32.95		24.68		2701772.61
32.96		24.70		2698032.55
32.97		24.71		2694996.85
32.98		24.72		2692675.05
32.98		24.73		2690813.69
32.99		24.74		2689476.38
33.00		24.74		2688319.80
33.01		24.75		2687465.63
33.02		24.75		2687170.47
33.03		24.73		2691150.08
33.03		24.69		2700067.82
33.04		24.63		2711902.40
33.05		24.58		2723533.52
33.06		24.54		2733776.83
33.06		24.50		2741240.00
33.08		24.48		2745870.28
33.08		24.48		2747079.77
33.09		24.48		2745617.15
33.10		24.50		2741287.59
33.11		24.53		2735324.60
33.11		24.56		2727947.61
33.13		24.60		2720600.57
33.14		24.63		2713371.59
33.14		24.66		2706639.57
33.15		24.69		2700729.12
33.16		24.71		2695782.43
33.17		24.73		2691572.31
33.18		24.74		2687861.90
33.19		24.76		2684708.65
33.19		24.77		2681929.61
33.20		24.78		2680028.60
33.21		24.79		2678930.20
33.22		24.79		2678873.12
33.22		24.78		2679415.06
33.24		24.78		2680766.52
33.24		24.77		2682428.87
33.25		24.76		2684070.93
33.26		24.76		2684823.87
33.27		24.76		2684842.46
33.27		24.76		2684086.31
33.29		24.76		2683484.98
33.29		24.77		2682657.94
33.30		24.77		2682176.09
33.30		24.77		2681554.04
33.32		24.77		2681710.34
33.33		24.77		2682197.46
33.34		24.77		2682950.90
33.34		24.76		2684026.24
33.35		24.76		2685477.01
33.36		24.75		2687373.69
33.37		24.74		2689499.73
33.38		24.73		2691753.69
33.38		24.72		2693418.03
33.39		24.72		2694197.92
33.40		24.72		2693730.14
33.41		24.72		2692583.82
33.42		24.73		2691517.40
33.43		24.72		2693222.53
33.43		24.69		2699185.91
33.44		24.65		2708725.24
33.45		24.60		2718871.68
33.46		24.56		2727906.12
33.46		24.54		2733779.12
33.48		24.53		2736104.03
33.48		24.53		2734352.99
33.49		24.55		2729940.64
33.50		24.58		2723379.63
33.51		24.61		2716334.99
33.51		24.65		2708928.96
33.53		24.68		2702553.16
33.54		24.70		2697204.88
33.54		24.72		2693170.92
33.55		24.73		2690502.61
33.56		24.74		2689320.61
33.57		24.74		2689652.55
33.58		24.73		2690988.30
33.59		24.72		2693054.26
33.59		24.71		2695333.11
33.60		24.70		2697769.44
33.61		24.69		2699825.66
33.62		24.68		2701603.95
33.62		24.68		2702731.33
33.64		24.67		2703573.84
33.64		24.67		2703701.71
33.65		24.67		2703594.80
33.66		24.68		2702879.86
33.67		24.68		2702195.18
33.67		24.68		2701198.35
33.69		24.69		2700584.04
33.69		24.69		2699868.39
33.70		24.69		2699745.24
33.70		24.69		2699620.57
33.72		24.69		2700162.54
33.73		24.69		2700844.00
33.74		24.68		2702005.50
33.74		24.67		2704071.83
33.75		24.66		2707211.32
33.76		24.64		2711192.13
33.77		24.62		2715165.75
33.78		24.61		2717953.17
33.78		24.60		2718488.29
33.79		24.61		2716821.62
33.80		24.63		2713438.07
33.81		24.65		2709317.32
33.82		24.67		2704738.48
33.83		24.69		2700278.94
33.83		24.71		2695814.62
33.84		24.73		2691841.47
33.85		24.74		2688068.69
33.86		24.76		2685138.09
33.86		24.77		2682681.92
33.88		24.78		2681140.32
33.88		24.78		2679617.35
33.89		24.79		2678371.53
33.90		24.80		2676763.41
33.91		24.80		2675572.76
33.91		24.81		2674201.99
33.93		24.81		2673505.83
33.94		24.81		2672999.53
33.94		24.81		2672703.32
33.95		24.81		2672642.40
33.96		24.81		2672792.91
33.97		24.81		2673284.72
33.98		24.81		2674046.82
33.99		24.81		2674768.33
33.99		24.80		2675342.12
34.00		24.80		2676280.32
34.01		24.79		2677764.04
34.02		24.78		2680474.77
34.02		24.76		2684137.61
34.04		24.74		2688428.19
34.04		24.73		2691999.64
34.05		24.71		2694585.20
34.06		24.71		2695564.22
34.07		24.71		2695461.36
34.07		24.72		2694146.97
34.09		24.72		2692574.06
34.09		24.73		2690705.85
34.10		24.74		2689512.05
34.10		24.74		2688649.47
34.12		24.74		2689087.81
34.12		24.73		2690658.10
34.14		24.72		2693883.28
34.14		24.70		2697740.50
34.15		24.68		2701576.95
34.16		24.67		2704924.18
34.17		24.66		2707312.54
34.18		24.65		2708654.88
34.18		24.65		2708673.74
34.19		24.65		2707601.94
34.20		24.66		2705476.85
34.21		24.67		2703602.18
34.22		24.68		2701661.75
34.23		24.69		2699889.75
34.23		24.70		2698024.84
34.24		24.70		2696526.13
34.25		24.71		2695229.25
34.26		24.71		2694545.50
34.26		24.72		2693746.71
34.28		24.72		2693046.32
34.28		24.72		2692282.88
34.29		24.72		2692325.36
34.30		24.72		2692592.67
34.31		24.72		2693639.64
34.31		24.71		2694508.31
34.33		24.71		2695494.86
34.34		24.71		2695890.33
34.34		24.71		2695767.98
34.35		24.71		2695429.63
34.36		24.71		2695005.96
34.37		24.71		2694722.01
34.38		24.71		2694989.66
34.39		24.71		2696311.70
34.39		24.70		2698545.82
34.40		24.68		2701561.53
34.41		24.67		2704608.63
34.42		24.65		2707570.88
34.42		24.64		2710220.64
34.44		24.63		2712946.48
34.44		24.62		2715418.73
34.45		24.61		2717872.91
34.46		24.60		2719570.96
34.47		24.60		2720582.01
34.47		24.60		2720301.16
34.49		24.60		2719197.05
34.49		24.61		2716964.31
34.50		24.62		2714417.28
34.50		24.64		2711028.93
34.52		24.66		2707292.21
34.53		24.68		2702547.98
34.54		24.70		2697006.98
34.54		24.73		2691374.50
34.55		24.75		2686400.05
34.56		24.77		2682333.63
34.57		24.79		2679009.67
34.58		24.80		2676207.61
34.58		24.81		2673553.01
34.59		24.82		2671597.13
34.60		24.83		2670036.25
34.61		24.83		2668915.02
34.62		24.82		2670657.88
34.63		24.80		2676559.40
34.63		24.75		2685722.03
34.64		24.71		2695364.74
34.65		24.67		2703905.14
34.66		24.64		2711334.18
34.66		24.61		2717090.85
34.68		24.59		2721086.74
34.68		24.59		2722535.97
34.69		24.59		2722027.71
34.70		24.60		2719790.99
34.71		24.61		2717199.43
34.71		24.62		2714559.70
34.73		24.63		2712759.34
34.74		24.64		2711384.83
34.74		24.64		2710189.71
34.75		24.65		2709059.92
34.76		24.65		2707912.09
34.77		24.66		2706806.91
34.78		24.66		2706127.64
34.79		24.66		2706309.74
34.79		24.66		2707086.68
34.80		24.65		2708096.21
34.81		24.65		2708715.16
34.82		24.65		2708895.66
34.82		24.65		2708396.66
34.84		24.65		2707612.17
34.84		24.66		2706677.28
34.85		24.66		2706082.30
34.86		24.66		2705483.39
34.87		24.67		2705182.51
34.87		24.67		2704777.28
34.89		24.67		2704890.29
34.89		24.67		2705124.29
34.90		24.66		2705709.28
34.90		24.66		2705761.19
34.92		24.66		2705687.18
34.93		24.67		2705187.46
34.94		24.67		2704480.54
34.94		24.67		2703724.90
34.95		24.68		2702896.23
34.96		24.68		2701932.22
34.97		24.69		2700711.64
34.98		24.69		2699328.40
34.98		24.70		2697721.34
34.99		24.71		2696134.73
35.00		24.71		2694497.20
35.01		24.72		2693145.87
35.02		24.73		2691930.78
35.03		24.73		2691018.02
35.03		24.73		2690062.22
35.04		24.74		2689427.69
35.05		24.74		2688791.39
35.06		24.74		2688465.19
35.06		24.74		2688011.44
35.08		24.74		2687850.45
35.08		24.75		2687510.43
35.09		24.75		2687388.98
35.10		24.75		2686948.33
35.11		24.75		2686724.14
35.11		24.75		2686216.10
35.13		24.75		2686049.35
35.14		24.75		2685798.41
35.14		24.76		2685562.71
35.15		24.76		2685504.73
35.16		24.75		2686128.63
35.17		24.74		2687917.17
35.18		24.73		2690741.94
35.19		24.72		2694020.15
35.19		24.70		2696963.79
35.20		24.69		2699530.96
35.21		24.68		2701633.08
35.22		24.67		2703895.77
35.22		24.66		2706180.38
35.24		24.65		2708714.41
35.24		24.64		2711273.08
35.25		24.62		2714402.05
35.26		24.61		2717795.19
35.27		24.59		2722084.04
35.27		24.57		2726164.43
35.29		24.56		2729481.55
35.29		24.55		2730918.37
35.30		24.55		2730267.73
35.30		24.57		2727231.88
35.32		24.58		2723124.45
35.33		24.60		2718625.26
35.34		24.62		2714471.63
35.34		24.64		2710847.12
35.35		24.65		2707448.63
35.36		24.67		2703992.34
35.37		24.69		2700313.02
35.38		24.70		2696564.04
35.38		24.72		2692844.94
35.39		24.74		2689596.05
35.40		24.75		2686923.63
35.41		24.76		2685015.88
35.42		24.76		2683502.31
35.43		24.77		2682484.34
35.43		24.77		2681605.16
35.44		24.78		2681056.75
35.45		24.78		2680401.65
35.46		24.78		2679905.21
35.46		24.78		2679201.38
35.48		24.79		2678751.65
35.48		24.79		2678225.69
35.49		24.79		2678037.59
35.50		24.79		2677656.92
35.51		24.79		2677514.51
35.51		24.79		2677148.16
35.53		24.79		2677361.20
35.54		24.79		2677824.76
35.54		24.79		2678340.11
35.55		24.79		2679002.07
35.56		24.78		2680077.46
35.57		24.77		2681611.24
35.58		24.77		2682848.63
35.59		24.76		2683597.24
35.59		24.76		2683821.10
35.60		24.76		2683948.33
35.61		24.76		2683808.35
35.62		24.77		2683411.58
35.62		24.77		2682348.80
35.64		24.78		2680695.95
35.64		24.79		2678389.28
35.65		24.80		2676354.89
35.66		24.81		2674718.73
35.67		24.81		2673948.93
35.67		24.81		2673498.63
35.69		24.81		2673653.52
35.69		24.81		2674308.04
35.70		24.80		2676209.52
35.70		24.78		2679121.54
35.72		24.77		2683399.77
35.72		24.74		2688448.47
35.74		24.71		2694332.13
35.74		24.69		2700097.89
35.75		24.67		2705237.15
35.76		24.65		2709393.01
35.77		24.63		2712361.89
35.78		24.62		2714507.48
35.78		24.62		2715996.59
35.79		24.61		2717108.33
35.80		24.61		2717814.77
35.81		24.61		2718142.58
35.82		24.61		2717727.98
35.83		24.61		2716752.77
35.83		24.62		2714990.10
35.84		24.63		2712954.22
35.85		24.64		2711198.21
35.86		24.64		2710900.21
35.86		24.63		2711990.29
35.88		24.62		2714514.53
35.88		24.61		2717378.55
35.89		24.60		2720370.28
35.90		24.59		2722574.66
35.91		24.58		2724377.30
35.91		24.57		2725231.45
35.93		24.57		2725755.33
35.94		24.57		2725549.64
35.94		24.58		2724664.40
35.95		24.58		2723244.47
35.96		24.59		2721610.23
35.97		24.60		2720420.96
35.98		24.60		2719684.96
35.99		24.60		2719425.95
35.99		24.60		2719370.47
36.00		24.60		2719384.13
36.01		24.60		2718888.14
36.02		24.61		2717813.27
36.02		24.62		2715790.97
36.04		24.63		2713117.37
36.04		24.64		2709643.82
36.05		24.66		2705922.75
36.13		24.61		2717135.72
36.14		24.55		2729906.82
36.14		24.48		2745666.18
36.15		24.40		2764630.40
36.16		24.31		2785920.51
36.17		24.20		2809272.51
36.18		24.11		2831175.27
36.18		24.04		2848060.57
36.19		23.99		2860429.33
36.20		23.95		2868930.76
36.21		23.93		2873966.81
36.22		23.92		2875317.43
36.23		23.93		2873967.37
36.23		23.94		2871010.87
36.24		23.95		2868008.43
36.25		23.97		2864852.28
36.26		23.99		2860535.55
36.26		24.01		2853970.85
36.28		24.05		2845295.30
36.28		24.10		2833554.04
36.29		24.16		2819500.25
36.30		24.23		2803515.79
36.31		24.30		2787142.76
36.31		24.37		2770669.78
36.33		24.44		2755242.95
36.34		24.51		2740017.67
36.34		24.58		2724844.21
36.35		24.65		2709572.70
36.36		24.71		2694981.50
36.37		24.77		2682105.04
36.38		24.82		2671225.72
36.39		24.87		2661478.02
36.39		24.91		2651557.51
36.40		24.96		2641284.52
36.41		25.01		2630620.59
36.42		25.06		2620159.44
36.42		25.11		2609706.02
36.44		25.16		2599567.13
36.44		25.21		2589463.13
36.45		25.26		2579697.81
36.46		25.31		2569757.52
36.47		25.36		2559674.53
36.47		25.41		2549107.94
36.49		25.46		2538637.07
36.49		25.51		2528125.39
36.50		25.57		2518068.62
36.50		25.62		2508149.30
36.52		25.66		2498898.96
36.52		25.71		2489841.43
36.54		25.75		2481340.52
36.54		25.80		2473002.44
36.55		25.84		2464751.05
36.56		25.88		2456553.87
36.57		25.93		2448355.25
36.58		25.97		2440232.94
36.58		26.01		2432139.07
36.59		26.06		2424183.55
36.60		26.10		2416251.60
36.61		26.14		2408503.12
36.62		26.18		2400809.03
36.63		26.22		2393338.96
36.63		26.26		2385833.25
36.64		26.31		2378412.09
36.65		26.35		2370861.29
36.66		26.39		2363624.42
36.66		26.43		2356588.82
36.68		26.46		2350051.17
36.68		26.50		2343749.92
36.69		26.53		2337915.85
36.70		26.56		2332208.70
36.71		26.59		2326945.57
36.71		26.62		2321732.63
36.73		26.65		2316937.52
36.74		26.68		2312280.48
36.74		26.70		2307772.48
36.75		26.73		2303423.88
36.76		26.75		2299200.66
36.77		26.78		2295111.19
36.78		26.80		2291048.61
36.79		26.83		2287035.32
36.79		26.85		2282934.10
36.80		26.87		2278831.00
36.81		26.90		2274619.46
36.82		26.92		2270433.45
36.82		26.95		2266132.73
36.84		26.97		2261907.17
36.84		27.00		2257785.39
36.85		27.02		2254017.14
36.86		27.04		2250317.91
36.87		27.07		2246726.67
36.87		27.09		2242973.67
36.89		27.11		2239421.70
36.89		27.13		2236701.66
36.90		27.14		2235163.67
36.90		27.14		2234202.05
36.92		27.14		2233815.61
36.92		27.14		2233568.53
36.94		27.14		2233813.15
36.94		27.14		2234556.33
36.95		27.13		2236024.00
36.96		27.11		2238859.99
36.97		27.09		2243255.33
36.98		27.05		2248778.59
36.98		27.02		2254791.77
36.99		26.98		2260881.58
37.00		26.95		2266696.61
37.01		26.91		2272394.12
37.02		26.88		2277993.98
37.03		26.84		2283791.33
37.03		26.81		2289258.23
37.04		26.79		2292434.43
37.05		26.79		2292570.40
37.06		26.80		2291752.13
37.06		26.80		2290959.46
37.08		26.80		2290818.18
37.08		26.80		2290750.94
37.09		26.80		2291021.54
37.10		26.80		2291573.47
37.11		26.79		2292790.34
37.11		26.78		2293963.68
37.13		26.78		2295111.43
37.13		26.77		2295735.81
37.14		26.77		2296082.46
37.15		26.77		2295928.11
37.16		26.78		2295126.81
37.17		26.78		2294619.26
37.18		26.78		2295006.60
37.19		26.77		2296039.22
37.19		26.77		2297131.44
37.20		26.76		2298159.63
37.21		26.75		2299213.43
37.22		26.75		2299855.91
37.22		26.75		2299759.74
37.24		26.75		2299629.87
37.24		26.75		2299983.53
37.25		26.74		2301274.39
37.26		26.73		2303116.10
37.27		26.72		2305622.21
37.27		26.70		2308542.35
37.29		26.68		2312446.42
37.29		26.65		2316779.47
37.30		26.63		2321199.18
37.30		26.61		2324748.59
37.32		26.59		2327573.58
37.33		26.58		2329281.87
37.34		26.57		2330420.42
37.34		26.57		2331435.77
37.35		26.56		2332469.47
37.36		26.56		2333831.16
37.37		26.54		2335759.46
37.38		26.53		2338352.87
37.38		26.51		2341282.52
37.39		26.50		2344307.13
37.40		26.48		2346889.84
37.41		26.47		2348891.30
37.42		26.46		2350064.60
37.43		26.46		2350687.31
37.43		26.46		2351251.65
37.44		26.45		2352275.60
37.45		26.44		2353873.65
37.48		26.42		2357689.35
37.48		26.39		2362680.05
37.49		26.36		2369352.58
37.50		26.31		2377678.13
37.51		26.25		2388379.84
37.51		26.18		2400929.34
37.53		26.10		2415344.45
37.53		26.03		2429333.12
37.54		25.96		2442546.62
37.55		25.90		2453519.09
37.56		25.85		2462168.46
37.57		25.82		2469007.56
37.58		25.79		2474609.91
37.59		25.76		2479667.85
37.59		25.74		2483487.59
37.60		25.73		2486446.23
37.61		25.72		2488360.95
37.62		25.71		2489614.93
37.62		25.71		2490285.49
37.64		25.70		2491012.53
37.64		25.70		2491543.35
37.65		25.70		2492099.06
37.66		25.70		2492244.50
37.67		25.70		2492264.16
37.67		25.70		2492348.15
37.69		25.69		2493177.25
37.69		25.69		2494364.98
37.70		25.68		2496360.93
37.70		25.66		2498975.92
37.72		25.64		2502780.16
37.72		25.62		2507074.41
37.74		25.60		2511917.96
37.74		25.57		2516489.50
37.75		25.56		2518901.62
37.76		25.56		2518617.04
37.77		25.57		2516184.69
37.78		25.59		2512582.61
37.78		25.62		2508300.05
37.79		25.64		2504034.95
37.80		25.66		2500388.11
37.81		25.67		2497299.12
37.82		25.69		2494330.73
37.83		25.70		2491434.84
37.83		25.71		2489471.76
37.84		25.71		2489931.05
37.85		25.70		2492690.36
37.86		25.67		2497462.42
37.86		25.64		2502836.92
37.88		25.62		2508019.84
37.88		25.59		2512358.29
37.89		25.58		2516131.31
37.90		25.56		2518295.59
37.91		25.56		2518864.49
37.91		25.57		2516958.39
37.93		25.59		2513326.31
37.94		25.62		2508186.08
37.94		25.65		2502243.40
37.95		25.68		2496211.25
37.96		25.71		2490560.28
37.97		25.73		2485545.21
37.98		25.75		2481816.62
37.99		25.76		2479545.60
37.99		25.77		2478066.15
38.00		25.78		2476978.11
38.01		25.78		2475699.69
38.02		25.79		2474439.79
38.02		25.80		2473160.60
38.04		25.80		2472212.69
38.04		25.81		2471492.27
38.05		25.81		2471174.41
38.06		25.81		2470857.87
38.07		25.81		2470989.48
38.07		25.81		2471422.75
38.09		25.80		2472579.58
38.09		25.79		2474178.25
38.10		25.78		2476575.76
38.10		25.76		2479323.33
38.12		25.75		2482720.35
38.12		25.73		2486633.06
38.14		25.70		2491880.33
38.14		25.67		2498217.74
38.15		25.63		2505245.69
38.16		25.60		2511885.76
38.17		25.57		2517920.96
38.18		25.54		2523787.87
38.18		25.51		2529889.03
38.19		25.47		2536718.35
38.20		25.43		2544184.08
38.21		25.39		2552291.39
38.22		25.35		2560668.12
38.23		25.31		2569291.68
38.23		25.27		2577840.18
38.24		25.23		2586322.00
38.25		25.19		2594279.77
38.26		25.15		2601707.61
38.26		25.12		2608238.55
38.28		25.09		2614367.74
38.28		25.06		2620024.41
38.29		25.03		2625907.54
38.30		25.01		2631889.29
38.31		24.97		2639127.61
38.31		24.93		2647127.06
38.33		24.89		2655857.04
38.34		24.85		2664246.51
38.34		24.82		2672019.69
38.35		24.78		2679288.15
38.36		24.76		2684839.69
38.37		24.74		2688714.34
38.38		24.73		2691332.94
38.39		24.71		2694423.63
38.39		24.70		2697741.04
38.40		24.69		2700672.64
38.41		24.68		2702409.94
38.42		24.68		2702795.90
38.42		24.68		2701415.04
38.44		24.69		2699050.42
38.44		24.71		2696334.09
38.45		24.72		2694310.21
38.46		24.72		2693019.55
38.47		24.72		2692916.31
38.47		24.72		2693656.27
38.49		24.71		2695675.38
38.49		24.70		2698386.00
38.50		24.68		2702052.94
38.50		24.66		2705627.61
38.52		24.65		2709151.53
38.53		24.63		2711923.85
38.54		24.63		2713821.36
38.54		24.62		2715354.23
38.55		24.61		2716723.76
38.56		24.61		2718244.50
38.57		24.60		2719620.49
38.58		24.60		2720582.83
38.58		24.59		2720697.97
38.59		24.60		2719849.80
38.60		24.61		2717917.87
38.61		24.62		2715336.45
38.62		24.63		2712311.97
38.63		24.65		2709407.54
38.63		24.66		2706472.57
38.64		24.67		2703844.41
38.65		24.68		2701141.64
38.66		24.69		2698703.57
38.66		24.71		2696215.36
38.68		24.71		2694459.57
38.68		24.72		2693217.83
38.69		24.72		2692886.64
38.70		24.72		2692711.61
38.71		24.72		2693089.56
38.71		24.72		2693041.34
38.73		24.72		2692909.92
38.74		24.72		2692264.03
38.74		24.73		2691558.49
38.75		24.73		2691230.17
38.76		24.73		2691467.87
38.77		24.72		2692296.51
38.78		24.72		2693195.79
38.79		24.72		2694045.91
38.79		24.72		2694284.40
38.80		24.71		2694435.69
38.81		24.71		2694467.84
38.82		24.71		2694555.47
38.82		24.72		2694288.15
38.84		24.72		2693905.22
38.84		24.72		2693156.21
38.85		24.72		2692460.84
38.86		24.73		2691463.16
38.87		24.73		2690605.87
38.87		24.74		2689524.86
38.89		24.74		2688716.91
38.89		24.74		2687874.79
38.90		24.75		2687603.41
38.90		24.75		2687372.93
38.92		24.75		2687703.86
38.92		24.74		2687937.24
38.94		24.74		2688605.67
38.94		24.74		2689337.78
38.95		24.73		2690222.46
38.96		24.73		2691370.07
38.97		24.72		2692788.36
38.98		24.71		2694650.19
38.98		24.70		2696858.75
38.99		24.69		2699310.62
39.00		24.68		2701369.45
39.01		24.67		2703135.29
39.02		24.67		2704413.54
39.03		24.66		2705518.22
39.03		24.66		2706247.34
39.04		24.66		2706850.66
39.05		24.66		2707017.65
39.06		24.66		2707165.50
39.06		24.66		2707013.05
39.08		24.65		2707448.01
39.08		24.65		2708160.22
39.09		24.65		2709162.88
39.10		24.64		2709690.17
39.11		24.64		2710422.11
39.11		24.64		2710963.88
39.13		24.63		2711876.38
39.13		24.63		2712451.31
39.14		24.63		2713175.85
39.15		24.63		2713699.90
39.16		24.62		2714087.51
39.17		24.62		2714472.05
39.18		24.62		2714987.73
39.19		24.62		2715802.28
39.19		24.61		2716601.13
39.20		24.61		2717325.89
39.21		24.61		2717568.32
39.22		24.61		2717362.62
39.22		24.61		2716389.17
39.24		24.62		2714936.51
39.24		24.63		2712816.20
39.25		24.64		2710415.85
39.26		24.65		2707542.31
39.27		24.67		2704718.58
39.27		24.68		2701527.11
39.29		24.70		2698364.30
39.29		24.71		2694785.75
39.30		24.73		2691517.40
39.30		24.74		2688354.38
39.32		24.75		2686183.36
39.32		24.76		2684627.88
39.34		24.76		2683884.91
39.34		24.77		2683199.18
39.35		24.77		2682391.98
39.36		24.77		2681644.18
39.37		24.78		2680964.43
39.38		24.78		2680394.57
39.38		24.78		2679863.30
39.39		24.78		2679472.89
39.40		24.79		2678908.97
39.41		24.79		2678266.69
39.42		24.79		2677305.87
39.43		24.80		2676378.64
39.43		24.80		2675299.90
39.44		24.81		2674426.32
39.45		24.81		2673515.36
39.46		24.81		2673016.52
39.46		24.81		2672752.25
39.48		24.81		2673448.08
39.48		24.80		2674854.93
39.49		24.79		2677308.06
39.50		24.78		2680141.40
39.51		24.76		2683665.91
39.51		24.75		2687114.45
39.53		24.73		2690838.39
39.54		24.72		2694214.34
39.54		24.70		2697169.84
39.55		24.69		2699805.49
39.56		24.68		2702073.40
39.57		24.67		2704128.92
39.58		24.66		2705866.34
39.59		24.66		2707267.00
39.59		24.65		2708025.59
39.60		24.65		2708361.79
39.61		24.65		2708243.38
39.62		24.65		2708062.24
39.62		24.65		2707546.49
39.64		24.66		2706956.87
39.64		24.66		2705987.06
39.65		24.67		2704977.74
39.66		24.67		2703626.28
39.67		24.68		2702507.05
39.67		24.68		2701359.44
39.69		24.69		2700717.30
39.69		24.69		2700055.76
39.70		24.69		2699796.55
39.70		24.69		2699111.43
39.72		24.70		2698570.81
39.73		24.70		2698018.64
39.74		24.70		2697578.76
39.74		24.70		2697230.24
39.75		24.70		2697076.03
39.76		24.70		2697207.20
39.77		24.70		2697488.22
39.78		24.70		2697685.70
39.78		24.70		2697631.62
39.79		24.70		2697404.17
39.80		24.70		2696784.05
39.81		24.71		2695966.86
39.82		24.71		2694814.08
39.83		24.72		2693809.21
39.83		24.72		2692899.05
39.84		24.72		2692485.87
39.85		24.72		2692293.60
39.86		24.72		2692714.29
39.86		24.72		2693325.89
39.88		24.71		2694407.20
39.88		24.71		2695409.11
39.89		24.70		2696719.40
39.90		24.70		2698036.22
39.91		24.69		2699815.56
39.91		24.68		2701378.37
39.93		24.67		2703158.40
39.94		24.67		2704705.79
39.94		24.66		2706033.00
39.95		24.66		2707167.34
39.96		24.65		2708076.97
39.97		24.65		2708729.09
39.98		24.65		2709021.33
39.99		24.65		2709071.67
39.99		24.65		2708808.54
40.00		24.65		2708477.85
40.01		24.65		2707891.78
40.02		24.66		2707311.53
40.02		24.66		2706549.29
40.04		24.66		2705989.44
40.04		24.66		2705350.42
40.05		24.67		2704964.23
40.06		24.67		2704409.50
40.07		24.67		2704018.72
40.07		24.67		2703314.43
40.09		24.68		2702768.27
40.09		24.68		2701917.17
40.10		24.68		2701249.04
40.10		24.69		2700246.77
40.12		24.69		2699527.34
40.13		24.69		2698741.99
40.14		24.70		2697944.36
40.14		24.70		2697180.86
40.15		24.71		2696458.24
40.16		24.71		2695833.53
40.17		24.71		2695224.68
40.18		24.71		2694693.86
40.18		24.72		2694083.63
40.19		24.72		2693538.40
40.20		24.72		2692892.99
40.21		24.72		2692433.88
40.22		24.73		2691997.00
40.23		24.73		2691860.09
40.23		24.73		2691708.36
40.24		24.73		2691813.78
40.25		24.73		2691837.30
40.26		24.72		2692149.20
40.27		24.72		2692538.64
40.28		24.72		2693005.42
40.28		24.72		2693377.45
40.29		24.72		2694104.48
40.30		24.71		2694722.16
40.31		24.71		2695769.94
40.31		24.70		2696690.64
40.33		24.70		2697995.25
40.34		24.69		2699191.85
40.34		24.69		2700201.15
40.35		24.68		2700977.64
40.36		24.68		2701509.81
40.37		24.68		2701968.97
40.38		24.68		2702279.69
40.39		24.68		2702503.96
40.39		24.68		2702438.32
40.40		24.68		2702223.82
40.41		24.68		2701692.48
40.42		24.68		2701125.51
40.42		24.69		2700343.61
40.44		24.69		2699643.47
40.44		24.69		2698936.68
40.45		24.70		2698664.39
40.46		24.70		2698523.72
40.47		24.69		2698786.85
40.47		24.69		2698909.54
40.49		24.69		2699253.45
40.49		24.69		2699375.80
40.50		24.69		2699808.52
40.50		24.69		2700072.44
40.52		24.69		2700777.24
40.52		24.68		2701432.72
40.54		24.68		2702637.93
40.54		24.67		2704108.11
40.55		24.66		2705870.69
40.56		24.65		2707812.63
40.57		24.64		2709679.70
40.58		24.64		2711273.55
40.58		24.63		2712384.61
40.59		24.63		2713054.23
40.60		24.63		2713189.72
40.61		24.63		2712999.22
40.62		24.63		2712431.70
40.63		24.63		2711848.34
40.63		24.64		2711192.95
40.64		24.64		2710878.88
40.65		24.64		2710723.49
40.66		24.64		2711168.51
40.66		24.64		2711814.14
40.68		24.63		2712880.35
40.68		24.63		2713811.18
40.69		24.62		2714765.45
40.70		24.62		2715092.74
40.71		24.62		2715224.72
40.71		24.62		2714768.00
40.73		24.62		2714388.24
40.73		24.63		2713683.79
40.74		24.63		2713343.07
40.75		24.63		2713001.25
40.76		24.63		2712652.21
40.77		24.63		2712242.95
40.78		24.64		2711697.44
40.79		24.64		2711045.27
40.79		24.64		2710204.83
40.80		24.65		2709327.84
40.81		24.65		2708340.51
40.82		24.66		2707443.14
40.82		24.66		2706475.90
40.84		24.66		2705672.76
40.84		24.67		2704789.78
40.85		24.67		2704076.59
40.86		24.67		2703207.89
40.87		24.68		2702470.79
40.87		24.68		2701506.83
40.89		24.69		2700790.06
40.89		24.69		2699831.43
40.90		24.69		2699154.81
40.90		24.70		2698222.97
40.92		24.70		2697572.69
40.92		24.70		2696786.70
40.94		24.70		2696549.85
40.94		24.70		2696537.23
40.95		24.70		2696753.98
40.96		24.70		2697222.23
40.97		24.70		2697859.44
40.98		24.69		2698721.11
40.98		24.69		2699625.10
40.99		24.69		2700661.25
41.00		24.68		2701584.98
41.01		24.68		2702551.90
41.02		24.67		2703326.16
41.03		24.67		2704094.16
41.03		24.67		2704475.61
41.04		24.67		2704779.08
41.05		24.67		2704735.84
41.06		24.67		2704770.85
41.06		24.67		2704527.73
41.08		24.67		2704468.22
41.08		24.67		2704313.13
41.09		24.67		2704628.41
41.10		24.67		2704946.55
41.11		24.66		2705797.73
41.11		24.66		2706578.18
41.13		24.65		2707802.95
41.14		24.65		2708863.68
41.14		24.65		2709514.92
41.15		24.64		2709792.79
41.16		24.64		2709752.57
41.17		24.65		2709483.02
41.18		24.65		2708944.41
41.19		24.65		2708290.51
41.19		24.65		2707457.02
41.20		24.66		2706668.16
41.21		24.66		2705668.40
41.22		24.67		2704684.34
41.22		24.67		2703463.85
41.24		24.68		2702368.69
41.24		24.68		2701196.98
41.25		24.69		2700403.24
41.26		24.69		2699670.05
41.27		24.69		2699429.12
41.27		24.69		2699242.30
41.29		24.69		2699531.52
41.29		24.69		2699780.66
41.30		24.69		2700456.64
41.30		24.68		2700967.36
41.32		24.68		2701818.08
41.33		24.68		2702572.62
41.34		24.67		2703189.11
41.34		24.67		2703645.37
41.35		24.67		2703932.01
41.36		24.67		2704112.59
41.37		24.67		2704144.55
41.38		24.67		2704108.79
41.38		24.67		2703859.21
41.39		24.67		2703542.84
41.40		24.68		2702994.68
41.41		24.68		2702468.42
41.42		24.68		2701785.73
41.43		24.68		2701245.35
41.43		24.69		2700588.09
41.44		24.69		2700141.02
41.45		24.69		2699583.71
41.46		24.69		2699304.82
41.46		24.69		2698948.18
41.48		24.69		2698955.54
41.48		24.69		2698920.02
41.49		24.69		2699318.40
41.50		24.69		2699659.92
41.51		24.69		2700458.80
41.51		24.68		2701155.92
41.53		24.68		2702309.83
41.54		24.67		2703501.07
41.54		24.67		2704674.77
41.55		24.66		2705795.85
41.56		24.66		2706758.80
41.57		24.65		2707574.50
41.58		24.65		2708086.00
41.59		24.65		2708403.73
41.59		24.65		2708394.17
41.60		24.65		2708294.77
41.61		24.65		2707950.16
41.62		24.65		2707647.27
41.62		24.66		2707182.19
41.64		24.66		2706942.00
41.64		24.66		2706699.70
41.65		24.66		2706909.38
41.66		24.66		2707250.55
41.67		24.65		2708210.30
41.67		24.65		2709423.48
41.69		24.64		2711261.43
41.69		24.63		2713061.34
41.70		24.62		2714884.38
41.70		24.62		2715598.65
41.72		24.62		2715382.53
41.73		24.63		2713846.59
41.74		24.64		2711676.05
41.74		24.64		2709755.84
41.75		24.65		2708455.23
41.76		24.65		2707807.90
41.77		24.65		2707499.92
41.78		24.66		2707294.43
41.78		24.66		2706848.16
41.79		24.66		2706200.27
41.80		24.67		2705158.60
41.81		24.67		2703941.50
41.82		24.68		2702408.44
41.83		24.68		2700912.57
41.83		24.69		2699323.92
41.84		24.70		2698031.49
41.85		24.70		2696799.81
41.86		24.71		2695989.84
41.86		24.71		2695218.31
41.88		24.71		2694856.43
41.88		24.72		2694170.92
41.89		24.72		2693643.14
41.90		24.72		2692900.17
41.91		24.72		2692543.11
41.91		24.73		2692045.17
41.93		24.73		2691934.62
41.94		24.73		2691771.28
41.94		24.73		2691506.90
41.95		24.73		2691126.96
41.96		24.73		2690853.39
41.97		24.73		2691010.02
41.98		24.73		2691456.91
41.99		24.72		2692222.99
41.99		24.72		2693173.30
42.00		24.71		2694354.75
42.01		24.71		2695378.21
42.02		24.71		2696344.15
42.02		24.70		2696964.56
42.04		24.70		2697676.76
42.04		24.70		2698240.29
42.05		24.69		2698978.93
42.06		24.69		2699515.07
42.07		24.69		2700248.19
42.07		24.69		2700760.03
42.09		24.68		2701506.67
42.09		24.68		2702019.19
42.10		24.68		2702789.14
42.10		24.67		2703228.61
42.12		24.67		2703680.97
42.13		24.67		2703698.94
42.14		24.67		2703256.27
42.14		24.68		2702468.30
42.15		24.68		2701507.37
42.16		24.69		2700537.50
42.17		24.69		2699611.45
42.18		24.69		2698801.11
42.18		24.70		2697913.06
42.19		24.70		2696996.85
42.20		24.71		2695849.65
42.21		24.71		2694715.05
42.22		24.72		2693451.45
42.23		24.72		2692372.42
42.23		24.73		2691325.73
42.24		24.73		2690680.90
42.25		24.73		2690123.00
42.26		24.73		2689977.08
42.26		24.74		2689815.96
42.28		24.73		2690012.85
42.28		24.73		2690135.61
42.29		24.73		2690639.89
42.30		24.73		2691037.96
42.31		24.73		2691823.19
42.31		24.72		2692415.81
42.33		24.72		2693328.80
42.34		24.72		2694114.52
42.34		24.71		2694747.88
42.35		24.71		2695214.41
42.36		24.71		2695474.12
42.37		24.71		2695606.22
42.38		24.71		2695571.82
42.39		24.71		2695475.29
42.39		24.71		2695257.60
42.40		24.71		2695126.79
42.41		24.71		2694941.82
42.42		24.71		2694947.69
42.42		24.71		2694897.94
42.44		24.71		2695051.35
42.44		24.71		2695099.62
42.45		24.71		2695392.32
42.46		24.71		2695550.79
42.47		24.71		2695901.26
42.47		24.71		2696007.63
42.49		24.71		2696195.52
42.49		24.71		2696059.11
42.50		24.71		2696080.65
42.50		24.71		2695765.31
42.52		24.71		2695670.78
42.53		24.71		2695441.40
42.54		24.71		2695106.60
42.54		24.71		2694707.54
42.55		24.72		2694281.70
42.56		24.72		2693961.08
42.57		24.72		2693722.69
42.58		24.72		2693604.24
42.58		24.72		2693443.04
42.59		24.72		2693330.05
42.60		24.72		2693171.12
42.61		24.72		2693187.31
42.62		24.72		2693221.51
42.63		24.72		2693511.54
42.63		24.72		2693798.13
42.64		24.72		2694293.69
42.65		24.71		2694704.14
42.66		24.71		2695300.49
42.66		24.71		2695767.17
42.68		24.71		2696454.04
42.68		24.70		2697004.82
42.69		24.70		2697897.14
42.70		24.69		2698906.13
42.71		24.69		2700459.42
42.71		24.68		2701875.03
42.73		24.67		2703593.68
42.73		24.67		2704900.79
42.74		24.66		2706139.75
42.75		24.66		2706775.94
42.76		24.66		2706794.68
42.77		24.66		2706295.03
42.78		24.66		2705386.34
42.79		24.67		2704293.18
42.79		24.68		2703051.95
42.80		24.68		2702007.45
42.81		24.68		2701173.95
42.82		24.69		2700820.49
42.82		24.69		2700758.14
42.84		24.68		2701114.96
42.84		24.68		2701508.90
42.85		24.68		2702121.10
42.86		24.68		2702480.72
42.87		24.68		2702797.53
42.87		24.68		2702654.27
42.89		24.68		2702437.79
42.89		24.68		2701791.09
42.90		24.68		2701291.71
42.90		24.68		2700939.99
42.92		24.68		2701347.79
42.92		24.68		2701841.72
42.94		24.68		2702792.75
42.94		24.67		2703647.68
42.95		24.67		2704316.74
42.96		24.67		2704832.58
42.97		24.67		2705173.28
42.98		24.66		2705571.38
42.98		24.66		2706224.76
42.99		24.66		2707408.64
43.00		24.65		2708818.45
43.01		24.64		2710220.26
43.02		24.64		2711175.82
43.03		24.64		2711672.11
43.03		24.64		2711384.87
43.04		24.64		2710683.12
43.05		24.65		2709472.97
43.06		24.65		2708289.51
43.06		24.66		2706932.89
43.08		24.66		2705815.05
43.08		24.67		2704515.29
43.09		24.67		2703418.24
43.10		24.68		2702014.78
43.11		24.69		2700838.57
43.11		24.69		2699385.45
43.13		24.70		2698248.21
43.14		24.70		2697036.43
43.14		24.71		2695762.58
43.15		24.71		2694452.74
43.16		24.72		2693082.74
43.17		24.73		2691723.79
43.18		24.73		2690300.61
43.19		24.74		2688931.31
43.19		24.75		2687483.31
43.20		24.75		2686149.23
43.21		24.76		2684781.65
43.22		24.76		2683669.57
43.22		24.77		2682622.32
43.24		24.77		2681978.47
43.24		24.77		2681509.35
43.25		24.77		2681549.92
43.26		24.77		2681843.49
43.27		24.77		2682691.38
43.27		24.76		2683698.46
43.29		24.76		2685176.58
43.29		24.75		2686624.09
43.30		24.74		2688482.04
43.30		24.73		2690223.72
43.32		24.72		2692463.41
43.33		24.71		2694799.37
43.34		24.70		2697037.82
43.34		24.69		2699107.83
43.35		24.68		2700998.04
43.36		24.68		2702783.50
43.37		24.67		2704354.00
43.38		24.66		2705709.79
43.38		24.66		2706656.94
43.39		24.66		2707322.99
43.40		24.65		2707542.71
43.41		24.66		2707439.49
43.42		24.66		2706910.81
43.43		24.66		2706410.39
43.43		24.66		2705854.80
43.44		24.66		2705666.16
43.45		24.66		2705522.04
43.46		24.66		2705813.60
43.46		24.66		2706172.41
43.48		24.66		2707005.69
43.48		24.65		2707778.37
43.49		24.65		2708869.53
43.50		24.65		2709635.19
43.51		24.64		2710586.70
43.51		24.64		2711143.50
43.53		24.63		2711904.10
43.54		24.63		2712479.16
43.54		24.63		2712945.19
43.55		24.63		2713330.86
43.56		24.63		2713576.54
43.57		24.63		2713685.14
43.58		24.63		2713515.54
43.59		24.63		2713213.75
43.59		24.63		2712738.48
43.60		24.63		2712155.80
43.61		24.64		2711298.67
43.62		24.64		2710430.46
43.62		24.65		2709292.88
43.64		24.65		2708176.62
43.64		24.66		2706750.31
43.65		24.66		2705391.05
43.66		24.67		2703754.36
43.67		24.68		2702331.20
43.67		24.69		2700758.57
43.69		24.69		2699582.21
43.69		24.70		2698361.12
43.70		24.70		2697653.62
43.70		24.70		2696943.16
43.72		24.70		2696839.70
43.72		24.70		2696777.33
43.74		24.70		2697419.80
43.74		24.70		2698114.42
43.75		24.69		2699463.01
43.76		24.68		2700927.01
43.77		24.68		2702411.11
43.78		24.67		2703875.73
43.78		24.67		2705130.72
43.79		24.66		2706242.31
43.80		24.66		2707213.19
43.81		24.65		2708289.55
43.82		24.65		2709285.65
43.83		24.64		2710262.23
43.83		24.64		2710823.58
43.84		24.64		2711136.15
43.85		24.64		2710906.37
43.86		24.64		2710537.88
43.86		24.64		2709762.13
43.88		24.65		2709081.71
43.88		24.65		2708131.25
43.89		24.66		2707429.76
43.90		24.66		2706445.18
43.91		24.66		2705773.05
43.91		24.67		2704889.62
43.93		24.67		2704470.76
43.94		24.67		2704177.76
43.94		24.67		2704046.21
43.95		24.67		2704076.37
43.96		24.67		2704187.68
43.97		24.67		2704400.15
43.98		24.67		2704568.93
43.99		24.67		2704775.80
43.99		24.67		2704777.18
44.00		24.67		2704592.04
44.01		24.67		2703745.84
44.02		24.68		2702279.83
44.02		24.69		2699863.72
44.04		24.70		2697028.70
44.04		24.72		2694171.87
44.05		24.72		2692629.78
44.06		24.72		2693287.30
44.07		24.70		2697458.30
44.07		24.67		2704128.36
44.09		24.64		2711760.24
44.09		24.61		2717499.78
44.10		24.59		2721045.74
44.10		24.59		2721710.85
44.12		24.60		2720022.47
44.13		24.61		2716354.44
44.14		24.64		2711339.33
44.14		24.66		2705762.27
44.15		24.69		2700347.24
44.16		24.71		2695750.02
44.17		24.72		2692248.34
44.18		24.72		2692376.54
44.18		24.71		2696331.16
44.19		24.68		2702731.68
44.20		24.65		2708856.03
44.21		24.63		2712791.98
44.22		24.63		2713193.79
44.23		24.64		2710503.71
44.23		24.66		2705354.64
44.24		24.69		2699114.90
44.25		24.72		2692549.55
44.26		24.75		2687280.25
44.26		24.77		2683375.64
44.28		24.78		2681131.09
44.28		24.78		2679912.01
44.29		24.78		2679662.93
44.30		24.78		2679297.86
44.31		24.79		2678870.19
44.31		24.79		2677637.71
44.33		24.80		2676250.23
44.34		24.81		2674548.66
44.34		24.82		2672567.11
44.37		24.82		2671722.80
44.38		24.82		2670862.60
44.39		24.82		2670567.29
44.39		24.82		2670880.21
44.40		24.82		2671783.20
44.41		24.81		2672794.48
44.42		24.81		2674007.54
44.42		24.80		2675267.36
44.44		24.79		2676958.98
44.44		24.79		2678875.52
44.45		24.77		2681524.79
44.46		24.76		2684172.81
44.47		24.75		2687278.81
44.47		24.73		2690971.51
44.49		24.71		2695307.45
44.49		24.69		2699673.05
44.50		24.67		2704452.04
44.50		24.65		2709538.58
44.52		24.62		2715350.32
44.53		24.59		2721010.60
44.54		24.57		2726102.16
44.54		24.55		2730422.74
44.55		24.54		2733919.15
44.56		24.52		2736507.99
44.57		24.52		2738451.97
44.58		24.51		2740085.54
44.58		24.50		2741292.15
44.59		24.50		2742062.88
44.60		24.50		2742166.88
44.61		24.50		2741775.79
44.62		24.50		2740702.36
44.63		24.51		2739262.92
44.63		24.52		2737290.90
44.64		24.53		2735135.22
44.65		24.54		2732504.22
44.66		24.55		2729581.96
44.66		24.57		2725407.93
44.68		24.60		2720523.16
44.68		24.62		2714870.53
44.69		24.65		2709236.09
44.70		24.67		2703142.26
44.71		24.70		2697185.07
44.71		24.73		2691016.46
44.73		24.76		2685484.25
44.74		24.78		2680468.71
44.74		24.80		2676181.50
44.75		24.81		2672653.68
44.76		24.83		2669694.00
44.77		24.84		2667137.96
44.78		24.85		2664732.37
44.79		24.86		2662570.09
44.79		24.87		2660589.62
44.80		24.88		2658966.45
44.81		24.89		2657526.22
44.82		24.89		2656501.92
44.82		24.89		2655757.39
44.84		24.89		2655639.48
44.84		24.89		2655627.01
44.85		24.89		2655971.43
44.86		24.89		2656383.99
44.87		24.89		2657330.23
44.87		24.88		2658512.08
44.89		24.87		2660333.45
44.89		24.86		2662446.31
44.90		24.85		2665251.41
44.90		24.84		2668294.32
44.92		24.82		2672004.95
44.92		24.80		2675727.75
44.94		24.78		2680035.53
44.94		24.76		2684066.62
44.95		24.75		2687619.12
44.96		24.73		2690774.05
44.97		24.72		2693574.82
44.98		24.71		2696197.96
44.98		24.70		2698601.58
44.99		24.68		2700974.20
45.00		24.67		2703143.00
45.01		24.66		2705322.58
45.02		24.66		2707214.38
45.03		24.65		2708860.83
45.03		24.64		2709872.31
45.04		24.64		2711126.16
45.05		24.63		2712421.76
45.06		24.62		2714216.04
45.06		24.62		2715677.14
45.08		24.61		2716793.61
45.08		24.61		2716954.69
45.09		24.61		2716638.36
45.10		24.62		2715395.37
45.11		24.63		2713815.12
45.11		24.64		2711485.31
45.13		24.65		2709227.05
45.14		24.66		2706916.30
45.14		24.67		2704757.82
45.15		24.68		2702935.70
45.16		24.68		2701558.26
45.17		24.69		2700719.15
45.18		24.69		2700353.76
45.19		24.69		2700441.43
45.19		24.69		2700683.56
45.20		24.68		2701055.59
45.21		24.68		2701192.07
45.22		24.68		2701237.10
45.22		24.68		2700918.39
45.24		24.69		2700472.98
45.24		24.69		2699690.83
45.25		24.69		2699209.43
45.26		24.69		2699036.85
45.27		24.69		2699601.19
45.27		24.69		2700269.73
45.29		24.68		2701266.61
45.29		24.68		2701867.82
45.30		24.68		2702328.68
45.30		24.68		2702052.34
45.32		24.68		2701667.63
45.33		24.68		2701149.76
45.34		24.69		2700703.92
45.34		24.69		2700307.12
45.35		24.69		2699912.68
45.36		24.69		2699894.42
45.37		24.69		2700146.28
45.38		24.69		2700486.07
45.38		24.69		2700527.32
45.39		24.69		2700219.44
45.40		24.69		2699390.32
45.41		24.70		2698292.51
45.42		24.70		2696797.85
45.43		24.71		2695265.84
45.43		24.72		2693596.16
45.44		24.72		2692248.96
45.45		24.73		2690934.27
45.46		24.73		2689982.25
45.46		24.74		2689042.39
45.48		24.74		2688343.05
45.48		24.75		2687427.97
45.49		24.75		2686862.59
45.50		24.75		2686306.83
45.51		24.75		2686397.83
45.51		24.75		2686826.05
45.53		24.74		2688359.69
45.54		24.73		2690670.95
45.54		24.72		2693720.09
45.55		24.70		2697358.76
45.56		24.68		2701138.09
45.57		24.67		2704680.75
45.58		24.65		2707607.47
45.59		24.64		2710080.84
45.59		24.63		2712111.71
45.60		24.63		2713781.72
45.61		24.62		2714985.53
45.62		24.61		2716280.53
45.62		24.61		2717595.96
45.64		24.60		2719318.15
45.64		24.59		2721133.59
45.65		24.58		2723142.82
45.67		24.57		2725232.45
45.67		24.57		2726642.57
45.69		24.56		2727672.01
45.69		24.56		2727955.03
45.70		24.56		2729248.84
45.70		24.55		2731461.67
45.72		24.53		2734594.48
45.72		24.52		2737415.25
45.74		24.51		2740041.33
45.74		24.50		2741795.74
45.75		24.50		2742548.77
45.76		24.50		2742327.14
45.77		24.50		2741234.68
45.78		24.51		2739602.79
45.78		24.52		2737718.48
45.79		24.53		2736025.70
45.80		24.53		2734487.24
45.81		24.54		2733222.74
45.82		24.54		2731822.64
45.83		24.55		2730492.35
45.83		24.56		2728904.59
45.84		24.57		2727067.47
45.85		24.58		2724955.12
45.86		24.58		2723086.26
45.86		24.59		2720943.98
45.88		24.60		2718459.71
45.88		24.62		2714999.11
45.89		24.64		2711107.39
45.90		24.66		2706281.96
45.91		24.68		2701092.24
45.91		24.71		2695137.59
45.93		24.74		2689292.92
45.94		24.77		2683380.33
45.94		24.80		2676939.09
45.95		24.83		2669656.82
45.96		24.86		2662761.00
45.97		24.89		2657446.77
45.98		24.90		2653418.92
45.99		24.92		2650514.74
45.99		24.93		2648374.30
46.00		24.94		2646881.56
46.01		24.94		2645715.14
46.02		24.94		2645310.01
46.02		24.94		2645538.50
46.04		24.94		2646143.95
46.04		24.94		2646552.68
46.05		24.93		2647075.22
46.06		24.93		2647336.82
46.07		24.93		2647429.99
46.07		24.94		2646542.86
46.09		24.94		2645136.13
46.09		24.96		2642645.97
46.10		24.97		2639403.97
46.10		24.99		2635149.52
46.12		25.01		2630726.93
46.12		25.03		2625937.67
46.14		25.05		2621713.02
46.14		25.07		2618094.53
46.15		25.09		2615157.23
46.16		25.10		2612949.42
46.17		25.10		2611360.84
46.18		25.11		2610381.94
46.18		25.11		2609775.88
46.19		25.11		2609580.68
46.20		25.11		2609753.87
46.21		25.11		2610487.64
46.22		25.11		2611213.51
46.23		25.10		2611683.78
46.23		25.10		2611255.47
46.24		25.11		2610232.69
46.25		25.12		2608669.81
46.26		25.12		2607406.16
46.26		25.13		2606313.20
46.28		25.13		2605838.79
46.28		25.13		2605432.90
46.29		25.13		2605285.96
46.30		25.14		2604788.05
46.31		25.14		2604556.19
46.31		25.14		2604153.23
46.33		25.14		2604027.02
46.34		25.14		2603250.42
46.34		25.15		2601916.45
46.35		25.16		2600062.44
46.36		25.17		2597614.09
46.37		25.19		2594338.74
46.38		25.21		2590514.42
46.39		25.22		2586922.94
46.39		25.24		2584220.90
46.40		25.24		2582852.90
46.41		25.24		2582550.76
46.42		25.24		2583048.08
46.42		25.24		2583420.82
46.44		25.24		2583466.70
46.44		25.24		2583126.30
46.45		25.24		2583269.20
46.46		25.23		2584608.05
46.47		25.21		2588976.50
46.47		25.18		2596046.69
46.49		25.13		2605207.22
46.49		25.09		2614908.83
46.50		25.04		2624527.48
46.50		25.00		2632911.70
46.52		24.96		2640642.93
46.52		24.93		2647513.64
46.54		24.90		2654494.72
46.54		24.87		2661356.12
46.55		24.83		2668379.96
46.56		24.80		2676179.61
46.57		24.76		2684944.33
46.58		24.71		2694527.13
46.58		24.68		2702996.13
46.59		24.65		2708982.87
46.60		24.63		2712326.14
46.61		24.63		2713785.14
46.62		24.63		2713452.39
46.63		24.64		2711810.10
46.63		24.65		2708950.51
46.64		24.66		2705745.18
46.65		24.68		2702452.63
46.66		24.69		2700047.55
46.66		24.70		2698645.40
46.68		24.70		2698674.44
46.68		24.69		2699065.80
46.69		24.69		2699661.60
46.70		24.69		2699370.31
46.71		24.70		2698635.60
46.71		24.70		2697400.16
46.73		24.70		2697139.78
46.74		24.69		2699261.89
46.74		24.67		2703385.38
46.75		24.65		2708208.25
46.76		24.63		2712585.72
46.77		24.62		2716131.97
46.78		24.60		2718760.33
46.79		24.59		2720743.08
46.79		24.59		2722023.11
46.80		24.59		2722518.73
46.81		24.59		2721281.04
46.82		24.60		2718801.02
46.82		24.62		2715517.06
46.84		24.63		2712180.68
46.84		24.65		2708927.47
46.85		24.66		2706255.25
46.86		24.67		2703897.39
46.87		24.68		2702211.98
46.87		24.69		2700637.97
46.89		24.69		2699412.97
46.89		24.70		2698014.58
46.90		24.70		2696883.03
46.90		24.71		2695482.36
46.92		24.72		2694265.95
46.92		24.72		2692774.32
46.94		24.73		2691641.08
46.94		24.73		2690600.18
46.95		24.74		2689883.61
46.96		24.74		2689636.96
46.97		24.74		2689824.29
46.98		24.73		2690497.82
46.98		24.73		2691518.78
46.99		24.72		2692975.55
47.00		24.71		2694616.08
47.06		24.66		2705256.05
47.06		24.61		2717155.54
47.06		24.55		2730041.69
47.08		24.49		2743756.87
47.08		24.43		2756693.22
47.09		24.38		2768108.22
47.10		24.35		2776619.14
47.11		24.32		2782578.35
47.11		24.31		2785736.14
47.13		24.30		2786897.46
47.14		24.31		2785713.34
47.14		24.32		2782793.91
47.15		24.34		2779074.34
47.16		24.35		2775221.37
47.17		24.37		2771696.72
47.18		24.38		2768992.69
47.19		24.39		2767294.49
47.19		24.39		2765998.73
47.20		24.40		2764612.25
47.21		24.41		2762319.89
47.22		24.42		2758842.38
47.22		24.45		2753585.32
47.24		24.48		2746702.75
47.24		24.51		2738557.51
47.25		24.55		2730292.53
47.26		24.59		2721729.63
47.27		24.63		2713177.79
47.27		24.67		2704149.64
47.29		24.71		2695179.90
47.29		24.75		2686039.52
47.30		24.79		2677329.53
47.30		24.83		2668589.68
47.32		24.87		2660056.34
47.32		24.92		2651229.05
47.34		24.95		2642769.09
47.34		24.99		2634840.86
47.35		25.03		2627536.75
47.36		25.06		2620703.87
47.37		25.09		2614056.92
47.38		25.13		2606695.92
47.38		25.17		2598108.63
47.39		25.21		2588616.60
47.40		25.26		2578513.20
47.41		25.31		2568386.43
47.42		25.36		2558392.26
47.43		25.41		2548955.70
47.43		25.46		2539796.64
47.44		25.50		2531586.24
47.45		25.53		2524096.19
47.46		25.57		2517397.48
47.46		25.60		2511196.25
47.48		25.63		2506022.23
47.48		25.65		2502065.87
47.49		25.65		2501367.60
47.50		25.63		2504606.86
47.51		25.59		2512341.59
47.51		25.54		2523297.19
47.53		25.47		2536598.95
47.54		25.40		2551100.71
47.54		25.32		2566734.85
47.55		25.24		2582682.19
47.56		25.17		2598061.66
47.57		25.10		2612818.60
47.58		25.03		2627193.57
47.59		24.96		2641898.03
47.59		24.89		2657353.57
47.60		24.81		2673379.66
47.61		24.75		2686921.72
47.62		24.70		2696732.52
47.62		24.67		2703287.17
47.64		24.65		2707823.77
47.64		24.64		2710533.62
47.65		24.64		2711744.40
47.66		24.64		2711200.41
47.67		24.65		2709567.32
47.67		24.66		2706902.62
47.69		24.67		2704084.77
47.69		24.68		2701512.05
47.70		24.68		2701164.14
47.70		24.68		2702815.40
47.72		24.66		2706475.01
47.72		24.64		2710677.62
47.74		24.62		2715041.65
47.74		24.60		2718488.60
47.75		24.59		2720679.20
47.76		24.59		2721718.31
47.77		24.59		2721858.52
47.78		24.59		2721556.99
47.78		24.59		2720946.19
47.79		24.60		2720355.74
47.80		24.60		2719786.99
47.81		24.60		2719454.15
47.82		24.60		2718873.43
47.83		24.61		2718243.25
47.83		24.61		2717298.92
47.84		24.61		2716275.21
47.85		24.62		2715190.73
47.86		24.62		2714690.67
47.86		24.62		2714557.90
47.88		24.62		2714980.62
47.88		24.62		2715270.81
47.89		24.62		2715498.79
47.90		24.62		2715355.57
47.91		24.62		2715581.82
47.91		24.62		2715717.83
47.93		24.62		2715843.90
47.94		24.62		2715439.71
47.94		24.62		2714807.28
47.95		24.62		2714417.72
47.96		24.62		2714532.74
47.97		24.62		2714973.81
47.98		24.62		2715320.49
47.99		24.62		2715691.51
47.99		24.62		2715973.79
48.00		24.62		2716140.45
48.01		24.62		2715984.09
48.02		24.62		2715780.23
48.02		24.62		2715412.78
48.04		24.62		2714931.84
48.04		24.63		2713778.90
48.05		24.63		2712372.88
48.06		24.64		2710472.71
48.07		24.65		2708678.78
48.07		24.66		2707060.77
48.09		24.66		2706114.62
48.09		24.67		2705050.84
48.10		24.68		2703047.34
48.10		24.69		2699568.74
48.12		24.71		2695687.27
48.12		24.73		2691581.02
48.14		24.74		2688312.65
48.14		24.75		2685945.24
48.15		24.76		2684568.28
48.16		24.76		2684152.58
48.17		24.76		2684342.61
48.18		24.76		2684697.45
48.18		24.76		2684456.88
48.19		24.77		2682126.29
48.20		24.79		2678479.64
48.21		24.80		2674881.34
48.22		24.82		2671501.29
48.23		24.83		2668877.77
48.23		24.84		2667031.47
48.24		24.84		2666293.84
48.25		24.85		2666086.15
48.26		24.84		2666259.21
48.26		24.84		2666339.79
48.28		24.84		2667076.15
48.28		24.84		2668266.60
48.29		24.83		2670289.44
48.30		24.82		2672472.10
48.31		24.80		2674821.89
48.31		24.80		2676460.50
48.33		24.79		2677803.28
48.34		24.79		2678549.79
48.34		24.78		2679149.05
48.35		24.78		2679759.96
48.36		24.78		2680224.60
48.37		24.78		2680341.27
48.38		24.78		2679913.74
48.39		24.79		2679053.44
48.39		24.79		2678171.81
48.40		24.79		2677993.31
48.41		24.79		2678470.80
48.42		24.78		2679725.32
48.42		24.77		2681543.33
48.44		24.76		2684163.00
48.44		24.75		2686614.59
48.45		24.74		2688784.08
48.46		24.73		2690213.48
48.47		24.73		2691561.79
48.47		24.72		2692340.32
48.49		24.72		2692801.08
48.49		24.72		2692532.30
48.50		24.72		2692397.18
48.50		24.72		2692391.24
48.52		24.72		2693371.14
48.52		24.71		2694824.18
48.54		24.70		2697184.26
48.54		24.69		2699729.33
48.55		24.68		2702105.34
48.56		24.67		2704048.11
48.57		24.66		2705359.63
48.58		24.66		2706353.26
48.58		24.65		2707461.80
48.59		24.65		2709319.82
48.60		24.64		2711484.92
48.61		24.63		2713438.68
48.62		24.62		2714411.80
48.63		24.62		2714312.97
48.63		24.63		2712548.09
48.64		24.65		2709417.65
48.65		24.67		2704991.49
48.66		24.69		2700323.91
48.66		24.71		2695850.71
48.68		24.72		2692747.46
48.68		24.73		2690975.53
48.69		24.73		2690841.93
48.70		24.73		2691375.86
48.71		24.72		2692428.37
48.71		24.72		2693043.34
48.73		24.72		2693734.04
48.74		24.71		2694332.98
48.74		24.71		2694903.10
48.75		24.71		2695466.56
48.76		24.71		2696171.90
48.77		24.70		2697222.49
48.78		24.70		2698556.73
48.79		24.69		2700057.15
48.79		24.68		2701292.64
48.80		24.68		2702199.10
48.81		24.68		2702513.51
48.82		24.68		2702460.70
48.82		24.68		2701714.00
48.84		24.69		2700585.88
48.84		24.69		2699070.56
48.85		24.70		2697583.59
48.86		24.71		2695669.82
48.87		24.72		2693573.11
48.87		24.73		2691007.97
48.89		24.74		2688348.03
48.89		24.76		2685344.10
48.90		24.77		2682763.88
48.90		24.78		2680475.65
48.92		24.79		2679039.42
48.92		24.79		2678023.96
48.94		24.79		2678239.73
48.94		24.78		2679381.71
48.95		24.77		2681298.71
48.96		24.76		2683687.17
48.97		24.75		2686135.60
48.98		24.74		2688414.52
48.98		24.73		2690708.69
48.99		24.72		2693228.96
49.00		24.71		2695922.39
49.01		24.69		2698698.70
49.02		24.69		2700695.10
49.03		24.68		2701480.41
49.03		24.69		2700592.77
49.04		24.69		2699192.96
49.05		24.70		2697755.93
49.06		24.70		2696948.57
49.06		24.71		2696376.54
49.08		24.71		2696441.85
49.08		24.70		2696675.49
49.09		24.70		2697231.41
49.10		24.70		2697438.73
49.11		24.70		2697876.98
49.11		24.70		2698488.74
49.13		24.69		2700038.13
49.13		24.68		2701817.41
49.14		24.67		2704119.10
49.15		24.66		2706361.70
49.16		24.65		2708304.26
49.17		24.64		2709767.00
49.18		24.64		2710444.45
49.19		24.64		2710430.36
49.19		24.64		2710218.24
49.20		24.64		2710282.61
49.21		24.64		2710493.34
49.22		24.64		2710809.46
49.22		24.64		2710872.27
49.24		24.64		2710828.84
49.24		24.64		2710420.43
49.25		24.64		2709771.47
49.26		24.65		2708570.65
49.27		24.66		2707155.07
49.27		24.67		2705158.87
49.29		24.68		2702952.82
49.29		24.69		2700054.85
49.30		24.70		2697021.17
49.30		24.72		2693673.97
49.32		24.73		2690894.46
49.32		24.74		2688289.28
49.34		24.75		2686449.66
49.34		24.76		2684939.06
49.35		24.76		2683615.43
49.36		24.77		2682371.99
49.37		24.78		2681077.23
49.38		24.78		2679736.57
49.38		24.79		2678225.64
49.39		24.80		2676684.48
49.40		24.80		2675524.64
49.41		24.80		2675046.86
49.42		24.80		2674958.91
49.43		24.80		2675296.19
49.43		24.80		2675716.66
49.44		24.80		2676352.77
49.45		24.80		2676913.36
49.46		24.79		2677854.63
49.46		24.79		2679009.29
49.48		24.78		2680709.27
49.48		24.77		2682477.25
49.49		24.76		2684608.87
49.50		24.75		2686487.59
49.51		24.74		2688460.65
49.51		24.74		2689944.50
49.53		24.73		2691437.57
49.54		24.72		2692711.78
49.54		24.72		2693984.84
49.55		24.71		2695242.16
49.56		24.71		2696436.58
49.57		24.70		2697587.66
49.58		24.70		2698567.70
49.59		24.69		2699436.42
49.59		24.69		2700067.94
49.60		24.69		2700644.94
49.61		24.68		2701016.61
49.62		24.68		2701368.12
49.62		24.68		2701491.75
49.64		24.68		2702380.88
49.64		24.67		2704418.71
49.65		24.65		2708323.07
49.66		24.63		2713441.80
49.67		24.60		2719266.19
49.67		24.58		2724465.36
49.69		24.56		2728422.25
49.69		24.55		2730421.84
49.70		24.55		2731205.40
49.70		24.55		2730745.11
49.72		24.55		2729962.38
49.73		24.56		2728684.13
49.74		24.57		2727135.43
49.74		24.57		2725659.75
49.75		24.58		2724499.97
49.76		24.58		2723707.92
49.77		24.58		2723103.35
49.78		24.59		2722601.80
49.78		24.59		2721977.36
49.79		24.59		2721329.92
49.80		24.60		2720483.36
49.81		24.60		2719526.38
49.82		24.61		2718103.17
49.83		24.62		2716230.16
49.83		24.62		2714070.64
49.84		24.63		2712526.97
49.85		24.64		2711291.94
49.86		24.64		2710281.85
49.86		24.65		2708892.29
49.88		24.66		2707424.68
49.88		24.66		2705551.51
49.89		24.67		2703863.47
49.90		24.68		2702031.32
49.91		24.69		2700595.64
49.91		24.69		2699061.73
49.93		24.70		2697956.30
49.94		24.70		2696891.58
49.94		24.71		2695856.69
49.95		24.71		2694846.00
49.96		24.72		2693704.66
49.97		24.72		2692489.22
49.98		24.73		2691271.28
49.99		24.73		2690259.63
49.99		24.74		2689370.87
50.00		24.74		2688693.79
50.01		24.74		2688029.85
50.02		24.75		2687582.41
50.02		24.75		2687143.09
50.04		24.75		2687027.22
50.04		24.75		2687086.57
50.05		24.75		2687712.13
50.06		24.74		2688538.29
50.07		24.74		2689823.77
50.07		24.73		2691011.57
50.09		24.72		2692404.64
50.09		24.72		2693694.42
50.10		24.71		2695536.22
50.10		24.70		2697677.39
50.12		24.69		2700740.72
50.13		24.67		2704270.02
50.14		24.65		2708001.51
50.14		24.64		2711590.03
50.15		24.62		2714683.75
50.16		24.61		2717375.88
50.17		24.60		2720020.68
50.18		24.59		2722660.71
50.18		24.58		2724931.07
50.19		24.57		2726691.78
50.20		24.56		2727686.09
50.21		24.56		2728134.02
50.22		24.56		2727994.01
50.23		24.56		2727685.18
50.23		24.57		2727112.75
50.24		24.57		2726622.73
50.25		24.57		2726026.39
50.26		24.57		2725873.95
50.26		24.57		2725954.59
50.28		24.57		2726692.31
50.28		24.56		2727662.09
50.29		24.56		2729061.06
50.30		24.55		2730132.60
50.31		24.55		2731144.80
50.31		24.55		2731493.16
50.33		24.55		2731744.90
50.34		24.55		2731602.06
50.34		24.55		2731159.66
50.35		24.55		2730498.14
50.36		24.55		2729658.67
50.37		24.56		2728709.33
50.38		24.56		2727615.84
50.39		24.57		2726469.91
50.39		24.57		2725150.16
50.40		24.58		2723757.46
50.41		24.59		2722068.48
50.42		24.60		2720174.41
50.42		24.61		2717780.21
50.44		24.62		2715170.79
50.44		24.63		2712173.79
50.45		24.65		2709247.44
50.46		24.66		2706146.46
50.47		24.67		2703299.56
50.47		24.69		2700381.91
50.49		24.70		2697871.79
50.49		24.71		2695420.19
50.50		24.72		2693471.35
50.50		24.73		2691549.28
50.52		24.73		2690068.33
50.52		24.74		2688490.78
50.54		24.75		2687367.92
50.54		24.75		2686438.37
50.55		24.75		2685745.63
50.56		24.76		2685330.69
50.57		24.76		2685145.66
50.58		24.76		2685225.03
50.58		24.76		2685416.41
50.59		24.75		2685791.40
50.60		24.75		2686146.07
50.61		24.75		2686631.15
50.62		24.75		2687005.64
50.63		24.75		2687512.59
50.63		24.74		2687911.63
50.64		24.74		2688596.00
50.65		24.74		2689369.58
50.66		24.73		2690604.95
50.66		24.73		2691882.95
50.68		24.72		2693435.57
50.68		24.71		2694830.01
50.69		24.71		2696434.40
50.70		24.70		2697729.15
50.71		24.69		2699155.16
50.71		24.69		2700310.83
50.73		24.68		2701666.15
50.73		24.68		2702685.38
50.74		24.67		2703931.61
50.75		24.67		2705098.02
50.76		24.66		2706218.08
50.77		24.66		2707336.08
50.78		24.65		2708255.07
50.79		24.65		2708945.89
50.79		24.65		2709210.42
50.80		24.65		2709260.06
50.81		24.65		2708985.07
50.82		24.65		2708674.48
50.82		24.65		2708184.29
50.84		24.65		2707826.66
50.84		24.66		2707281.88
50.85		24.66		2706783.98
50.86		24.66		2705962.50
50.87		24.67		2705172.25
50.87		24.67		2704090.68
50.89		24.67		2703276.77
50.89		24.68		2702494.45
50.90		24.68		2702356.58
50.90		24.68		2702412.31
50.92		24.68		2703026.91
50.92		24.67		2703547.69
50.94		24.67		2704302.18
50.94		24.67		2704505.74
50.95		24.67		2704501.83
50.96		24.67		2703942.81
50.97		24.68		2703030.66
50.98		24.68		2702156.14
50.98		24.68		2701456.56
50.99		24.68		2701143.97
51.00		24.68		2700962.56
51.01		24.68		2700876.22
51.02		24.69		2700476.98
51.03		24.69		2699890.49
51.03		24.69		2698846.95
51.04		24.70		2697736.48
51.05		24.71		2696469.83
51.06		24.71		2695561.92
51.06		24.71		2694832.00
51.08		24.71		2694652.22
51.10		24.71		2696231.63
51.11		24.70		2697945.77
51.11		24.69		2699451.25
51.13		24.68		2701248.07
51.13		24.68		2702868.91
51.14		24.67		2704884.37
51.15		24.66		2706780.73
51.16		24.65		2708398.60
51.17		24.65		2709616.17
51.18		24.64		2710347.16
51.19		24.64		2710505.01
51.19		24.64		2710082.40
51.20		24.65		2709395.92
51.21		24.65		2708482.48
51.22		24.65		2707611.84
51.22		24.66		2706629.73
51.24		24.66		2705782.90
51.24		24.67		2704851.26
51.25		24.67		2704121.04
51.26		24.67		2703277.45
51.27		24.68		2702668.39
51.27		24.68		2701973.49
51.29		24.68		2701656.79
51.29		24.68		2701281.64
51.30		24.68		2701218.52
51.30		24.68		2700973.11
51.32		24.68		2701023.15
51.32		24.69		2700776.79
51.34		24.69		2700727.54
51.34		24.69		2700455.31
51.35		24.69		2699936.37
51.36		24.69		2699191.06
51.37		24.70		2698190.17
51.38		24.70		2697020.85
51.38		24.71		2695616.13
51.39		24.72		2694146.42
51.40		24.72		2692506.96
51.41		24.73		2690932.46
51.42		24.74		2689257.97
51.43		24.75		2687739.78
51.43		24.75		2686138.59
51.44		24.76		2684757.98
51.45		24.77		2683335.03
51.46		24.77		2682273.15
51.46		24.77		2681312.89
51.48		24.78		2680908.91
51.48		24.78		2680681.86
51.49		24.78		2680983.59
51.50		24.77		2681334.72
51.51		24.77		2682096.53
51.51		24.77		2682801.67
51.53		24.76		2683859.97
51.53		24.76		2684833.50
51.54		24.75		2686366.14
51.55		24.74		2688131.97
51.56		24.73		2690064.93
51.57		24.73		2691972.54
51.58		24.72		2693702.71
51.59		24.71		2695289.62
51.59		24.70		2696576.88
51.60		24.70		2697735.08
51.61		24.70		2698620.18
51.62		24.69		2699500.45
51.62		24.69		2700217.19
51.64		24.68		2701077.10
51.64		24.68		2701817.84
51.65		24.68		2702768.60
51.66		24.67		2703614.08
51.67		24.67		2704656.58
51.67		24.66		2705562.74
51.69		24.66		2706659.91
51.69		24.65		2707515.98
51.70		24.65		2708569.76
51.70		24.65		2709413.93
51.72		24.64		2710580.38
51.73		24.64		2711659.30
51.74		24.63		2712597.52
51.74		24.63		2713349.91
51.75		24.63		2713858.83
51.76		24.62		2714097.25
51.77		24.63		2713960.79
51.78		24.63		2713490.45
51.78		24.63		2712618.50
51.79		24.64		2711518.21
51.80		24.64		2710100.88
51.81		24.65		2708641.78
51.82		24.66		2707051.56
51.83		24.66		2705622.87
51.83		24.67		2704130.69
51.84		24.68		2702851.79
51.85		24.68		2701469.85
51.86		24.69		2700300.14
51.86		24.69		2698985.81
51.88		24.70		2697895.14
51.88		24.70		2696656.46
51.89		24.71		2695720.75
51.90		24.71		2694676.40
51.91		24.72		2694036.72
51.91		24.72		2693266.86
51.93		24.72		2692888.76
51.94		24.72		2692526.41
51.94		24.72		2692205.47
51.95		24.73		2691956.49
51.96		24.73		2691771.44
51.97		24.73		2691693.15
51.98		24.73		2691658.24
51.99		24.73		2691717.35
51.99		24.73		2691742.69
52.00		24.73		2691890.29
52.01		24.73		2691998.27
52.02		24.72		2692246.40
52.02		24.72		2692456.42
52.04		24.72		2692812.20
52.04		24.72		2693075.29
52.05		24.72		2693514.22
52.06		24.72		2693878.43
52.07		24.71		2694452.18
52.07		24.71		2694852.64
52.09		24.71		2695447.12
52.09		24.71		2695787.62
52.10		24.71		2696356.00
52.10		24.70		2696723.62
52.12		24.70		2697395.44
52.12		24.70		2697934.85
52.14		24.69		2698936.77
52.14		24.69		2700175.95
52.15		24.68		2701715.77
52.16		24.67		2703514.85
52.17		24.66		2705387.71
52.18		24.66		2707222.65
52.18		24.65		2708794.31
52.19		24.64		2709690.59
52.20		24.64		2709927.57
52.21		24.64		2709978.85
52.22		24.64		2709917.48
52.23		24.64		2710000.23
52.23		24.64		2710001.89
52.24		24.64		2710106.62
52.25		24.64		2710008.55
52.26		24.64		2710010.40
52.26		24.64		2709736.94
52.28		24.65		2709596.51
52.28		24.65		2709244.14
52.29		24.65		2709123.15
52.30		24.65		2708814.51
52.31		24.65		2708795.70
52.31		24.65		2708586.66
52.33		24.65		2708706.05
52.34		24.65		2708790.04
52.34		24.65		2708833.47
52.35		24.65		2708845.65
52.36		24.65		2708768.39
52.37		24.65		2708568.17
52.38		24.65		2708183.09
52.39		24.65		2707712.02
52.39		24.66		2707038.98
52.40		24.66		2706295.99
52.41		24.66		2705325.07
52.42		24.67		2704338.52
52.42		24.67		2703159.69
52.44		24.68		2702052.52
52.44		24.69		2700784.47
52.45		24.69		2699682.40
52.46		24.70		2698470.86
52.49		24.69		2700306.50
52.49		24.68		2702598.01
52.50		24.66		2705643.53
52.50		24.65		2709171.39
52.52		24.63		2713326.77
52.52		24.61		2717307.82
52.54		24.59		2721338.22
52.54		24.58		2724817.32
52.55		24.56		2727629.30
52.56		24.55		2729772.24
52.57		24.55		2731242.36
52.58		24.54		2732217.16
52.58		24.54		2732721.16
52.59		24.54		2732968.38
52.60		24.54		2732922.68
52.61		24.54		2732832.43
52.62		24.54		2732519.73
52.63		24.54		2732162.76
52.63		24.55		2731478.16
52.64		24.55		2730748.70
52.65		24.55		2729708.45
52.66		24.56		2728700.03
52.66		24.56		2727377.25
52.68		24.57		2726092.55
52.68		24.58		2724437.08
52.69		24.59		2722801.57
52.70		24.59		2720720.66
52.71		24.60		2718639.60
52.71		24.62		2716038.41
52.73		24.63		2713402.63
52.74		24.64		2710315.71
52.74		24.66		2706943.31
52.75		24.67		2703484.00
52.76		24.69		2700080.91
52.77		24.70		2696825.09
52.78		24.72		2693742.64
52.79		24.73		2690889.06
52.79		24.74		2688177.78
52.80		24.75		2685733.76
52.81		24.77		2683371.76
52.82		24.78		2681254.86
52.82		24.78		2679246.71
52.84		24.79		2677511.94
52.84		24.80		2675813.36
52.85		24.81		2674340.49
52.86		24.81		2672844.50
52.87		24.82		2671668.12
52.87		24.82		2670594.95
52.89		24.83		2669999.02
52.89		24.83		2669543.84
52.90		24.83		2669698.26
52.90		24.83		2670058.74
52.92		24.82		2671151.10
52.93		24.82		2672607.71
52.94		24.81		2674364.60
52.94		24.80		2676343.46
52.95		24.79		2678446.62
52.96		24.78		2680624.21
52.97		24.77		2682788.48
52.98		24.76		2685013.63
52.98		24.75		2687216.92
52.99		24.74		2689514.26
53.00		24.73		2691715.45
53.01		24.72		2693966.78
53.02		24.71		2696079.71
53.03		24.70		2698082.65
53.03		24.69		2699765.09
53.04		24.68		2701583.90
53.05		24.67		2703405.11
53.06		24.66		2705600.74
53.06		24.65		2707811.41
53.08		24.64		2710341.05
53.08		24.63		2712741.98
53.09		24.62		2715383.18
53.10		24.61		2717794.23
53.11		24.60		2720433.00
53.11		24.59		2722822.77
53.13		24.57		2725522.05
53.14		24.56		2728196.02
53.14		24.55		2730883.06
53.15		24.54		2733588.70
53.16		24.52		2736235.06
53.17		24.51		2738749.41
53.18		24.50		2740923.58
53.19		24.50		2742711.57
53.19		24.49		2743902.99
53.20		24.49		2744555.76
53.21		24.49		2744451.05
53.22		24.49		2743807.82
53.22		24.50		2742494.09
53.24		24.50		2740834.96
53.24		24.51		2738624.66
53.25		24.53		2736219.19
53.26		24.54		2733334.46
53.27		24.55		2730244.18
53.27		24.57		2726599.46
53.29		24.58		2722926.94
53.29		24.60		2719017.46
53.30		24.62		2715499.74
53.30		24.63		2711968.65
53.32		24.65		2708944.29
53.32		24.66		2705903.15
53.34		24.67		2703420.70
53.34		24.68		2701138.10
53.35		24.69		2699054.42
53.36		24.70		2697178.26
53.37		24.71		2695361.11
53.38		24.72		2693498.73
53.38		24.73		2691481.76
53.39		24.74		2689466.29
53.40		24.75		2687357.91
53.41		24.76		2685389.79
53.42		24.76		2683448.78
53.43		24.77		2681885.31
53.43		24.78		2680540.03
53.44		24.78		2679714.78
53.45		24.78		2679137.94
53.46		24.79		2679078.80
53.46		24.78		2679140.40
53.48		24.78		2679518.77
53.48		24.78		2679809.72
53.49		24.78		2680321.67
53.50		24.78		2680685.10
53.51		24.77		2681346.39
53.51		24.77		2681928.31
53.53		24.77		2682961.58
53.54		24.76		2684101.24
53.54		24.76		2685365.34
53.55		24.75		2686775.50
53.56		24.74		2688426.39
53.57		24.73		2690391.86
53.58		24.72		2692540.62
53.59		24.71		2694767.41
53.59		24.70		2696903.79
53.60		24.69		2699030.34
53.61		24.68		2701029.88
53.62		24.67		2703069.76
53.62		24.67		2704943.65
53.64		24.66		2706839.29
53.64		24.65		2708490.03
53.65		24.64		2710158.85
53.66		24.64		2711531.96
53.67		24.63		2712910.32
53.67		24.63		2713964.51
53.69		24.62		2715117.52
53.69		24.62		2715964.77
53.70		24.61		2716915.46
53.70		24.61		2717542.12
53.72		24.61		2718296.12
53.72		24.60		2718706.26
53.74		24.60		2719294.12
53.74		24.60		2719760.11
53.75		24.60		2720166.56
53.76		24.60		2720523.95
53.77		24.59		2720747.28
53.78		24.59		2720862.50
53.78		24.59		2720762.70
53.79		24.60		2720578.54
53.80		24.60		2720200.81
53.81		24.60		2719830.12
53.82		24.60		2719324.43
53.83		24.60		2718844.47
53.83		24.61		2718178.80
53.84		24.61		2717484.71
53.85		24.61		2716468.30
53.86		24.62		2715422.46
53.86		24.63		2714034.39
53.88		24.63		2712651.30
53.88		24.64		2710997.95
53.89		24.65		2709558.97
53.90		24.65		2707943.80
53.91		24.66		2706637.22
53.91		24.67		2705166.02
53.93		24.67		2704028.46
53.94		24.68		2702866.36
53.94		24.68		2701700.59
53.95		24.69		2700561.63
53.96		24.69		2699461.80
53.97		24.70		2698488.58
53.98		24.70		2697611.95
53.99		24.70		2696896.81
53.99		24.71		2696235.10
54.00		24.71		2695761.44
54.01		24.71		2695311.18
54.02		24.71		2694986.34
54.02		24.71		2694590.29
54.04		24.72		2694269.95
54.04		24.72		2693829.27
54.05		24.72		2693525.27
54.06		24.72		2693137.71
54.07		24.72		2692960.59
54.07		24.72		2692695.11
54.09		24.72		2692667.56
54.09		24.72		2692518.95
54.10		24.72		2692685.74
54.10		24.72		2692746.79
54.12		24.72		2693152.98
54.12		24.72		2693482.23
54.14		24.72		2694272.67
54.14		24.71		2695125.36
54.15		24.71		2695977.56
54.16		24.70		2696791.45
54.17		24.70		2697480.37
54.18		24.70		2698079.75
54.18		24.70		2698500.18
54.19		24.69		2698870.47
54.20		24.69		2699093.91
54.21		24.69		2699376.49
54.22		24.69		2699577.02
54.23		24.69		2699921.11
54.23		24.69		2700179.41
54.24		24.69		2700590.92
54.25		24.69		2700866.35
54.26		24.68		2701301.62
54.26		24.68		2701575.35
54.28		24.68		2702050.63
54.28		24.68		2702360.43
54.29		24.68		2702936.62
54.30		24.67		2703346.17
54.31		24.67		2704040.30
54.31		24.67		2704517.14
54.33		24.66		2705275.56
54.33		24.66		2705773.58
54.34		24.66		2706528.41
54.35		24.66		2707151.58
54.36		24.65		2707606.78
54.37		24.65		2707928.37
54.38		24.65		2708038.40
54.39		24.65		2708037.42
54.39		24.65		2707860.24
54.40		24.65		2707696.35
54.41		24.66		2707393.77
54.42		24.66		2707080.54
54.42		24.66		2706493.37
54.44		24.66		2705869.51
54.44		24.67		2705012.67
54.45		24.67		2704267.69
54.46		24.67		2703400.22
54.47		24.68		2702714.28
54.47		24.68		2701899.62
54.49		24.68		2701341.16
54.49		24.69		2700623.04
54.50		24.69		2700181.28
54.50		24.69		2699573.32
54.52		24.69		2699279.01
54.52		24.69		2698817.40
54.54		24.69		2698709.12
54.54		24.70		2698582.20
54.55		24.70		2698424.12
54.56		24.70		2698221.10
54.57		24.70		2697917.53
54.58		24.70		2697562.21
54.58		24.70		2697067.44
54.59		24.70		2696564.49
54.60		24.71		2695929.67
54.61		24.71		2695356.24
54.62		24.71		2694706.73
54.63		24.72		2694164.03
54.63		24.72		2693566.89
54.64		24.72		2693122.64
54.65		24.72		2692584.71
54.66		24.72		2692248.87
54.66		24.73		2691783.78
54.68		24.73		2691558.34
54.68		24.73		2691216.29
54.69		24.73		2691124.44
54.70		24.73		2690911.60
54.71		24.73		2691043.28
54.71		24.73		2691058.44
54.73		24.73		2691469.68
54.74		24.73		2691934.95
54.74		24.72		2692453.52
54.75		24.72		2693015.05
54.76		24.72		2693595.22
54.77		24.72		2694167.39
54.78		24.71		2694670.31
54.79		24.71		2695134.43
54.79		24.71		2695515.88
54.80		24.71		2695906.12
54.81		24.71		2696255.61
54.82		24.70		2696689.40
54.82		24.70		2697033.47
54.84		24.70		2697463.73
54.84		24.70		2697777.97
54.85		24.70		2698219.60
54.86		24.70		2698529.94
54.87		24.69		2698972.68
54.87		24.69		2699227.37
54.89		24.69		2699646.30
54.89		24.69		2699851.24
54.90		24.69		2700296.84
54.90		24.69		2700541.77
54.92		24.68		2701092.43
54.92		24.68		2701466.27
54.94		24.68		2702174.68
54.94		24.68		2702843.70
54.95		24.67		2703428.49
54.96		24.67		2703910.66
54.97		24.67		2704208.27
54.98		24.67		2704377.64
54.98		24.67		2704341.60
54.99		24.67		2704254.10
55.00		24.67		2704043.29
55.01		24.67		2703911.22
55.02		24.67		2703715.98
55.03		24.67		2703622.37
55.03		24.67		2703429.85
55.04		24.67		2703423.15
55.05		24.67		2703316.02
55.06		24.67		2703404.78
55.06		24.67		2703369.31
55.08		24.67		2703502.45
55.08		24.67		2703443.38
55.09		24.67		2703592.19
55.10		24.67		2703511.59
55.11		24.67		2703663.28
55.11		24.67		2703567.65
55.13		24.67		2703767.67
55.14		24.67		2703922.40
55.15		24.67		2704361.16
55.15		24.67		2704654.17
55.16		24.67		2704905.31
55.17		24.67		2705130.69
55.18		24.67		2705190.88
55.19		24.67		2705131.34
55.19		24.67		2704852.29
55.20		24.67		2704487.78
55.21		24.67		2703939.59
55.22		24.67		2703409.82
55.22		24.68		2702751.31
55.24		24.68		2702200.24
55.24		24.68		2701530.51
55.25		24.68		2701044.88
55.26		24.69		2700435.45
55.27		24.69		2699980.07
55.27		24.69		2699364.26
55.29		24.69		2698958.34
55.29		24.70		2698387.50
55.30		24.70		2698112.24
55.30		24.70		2697701.27
55.32		24.70		2697678.43
55.32		24.70		2697561.83
55.34		24.70		2697885.08
55.34		24.70		2698291.36
55.35		24.69		2698769.82
55.36		24.69		2699296.11
55.37		24.69		2699842.16
55.38		24.69		2700401.28
55.38		24.68		2700904.57
55.39		24.68		2701424.29
55.40		24.68		2701819.64
55.41		24.68		2702172.86
55.42		24.68		2702358.48
55.43		24.68		2702604.82
55.43		24.68		2702724.77
55.44		24.68		2702992.16
55.45		24.67		2703119.54
55.46		24.67		2703372.58
55.46		24.67		2703443.14
55.48		24.67		2703628.28
55.48		24.67		2703600.01
55.49		24.67		2703721.07
55.50		24.67		2703601.78
55.51		24.67		2703717.00
55.51		24.67		2703592.66
55.53		24.67		2703694.54
55.53		24.67		2703552.16
55.54		24.67		2703696.80
55.55		24.67		2703765.91
55.56		24.67		2703757.44
55.57		24.67		2703683.87
55.58		24.67		2703540.40
55.59		24.67		2703435.09
55.59		24.67		2703262.48
55.60		24.67		2703110.06
55.61		24.68		2702838.86
55.62		24.68		2702606.95
55.62		24.68		2702245.66
55.64		24.68		2701976.12
55.64		24.68		2701568.88
55.65		24.68		2701317.10
55.66		24.68		2700901.14
55.67		24.69		2700659.36
55.67		24.69		2700229.23
55.69		24.69		2700012.23
55.69		24.69		2699597.25
55.70		24.69		2699429.63
55.70		24.69		2699060.11
55.72		24.69		2698920.48
55.72		24.70		2698565.87
55.74		24.70		2698489.26
55.74		24.70		2698222.50
55.75		24.70		2698287.12
55.76		24.70		2698342.64
55.77		24.70		2698339.38
55.78		24.70		2698355.48
55.78		24.70		2698306.89
55.79		24.70		2698311.09
55.80		24.70		2698222.56
55.81		24.70		2698199.56
55.82		24.70		2698059.14
55.83		24.70		2698019.21
55.83		24.70		2697855.42
55.84		24.70		2697832.34
55.85		24.70		2697679.47
55.86		24.70		2697678.89
55.86		24.70		2697525.32
55.88		24.70		2697549.48
55.88		24.70		2697403.74
55.89		24.70		2697473.39
55.90		24.70		2697365.90
55.91		24.70		2697546.18
55.91		24.70		2697558.70
55.93		24.70		2697920.01
55.94		24.70		2698285.33
55.94		24.70		2698659.15
55.95		24.69		2699030.69
55.96		24.69		2699372.13
55.97		24.69		2699660.34
55.98		24.69		2699825.63
55.99		24.69		2699943.25
55.99		24.69		2699898.07
56.00		24.69		2699847.81
56.01		24.69		2699643.89
56.02		24.69		2699502.08
56.02		24.69		2699224.78
56.04		24.69		2699070.10
56.04		24.69		2698786.88
56.05		24.70		2698654.91
56.06		24.70		2698389.57
56.07		24.70		2698271.14
56.07		24.70		2698001.96
56.09		24.70		2697915.15
56.09		24.70		2697671.35
56.10		24.70		2697659.39
56.10		24.70		2697487.35
56.12		24.70		2697651.09
56.13		24.70		2697837.56
56.14		24.70		2698058.29
56.14		24.70		2698312.80
56.15		24.70		2698578.48
56.16		24.69		2698856.89
56.17		24.69		2699086.32
56.18		24.69		2699322.15
56.18		24.69		2699455.29
56.19		24.69		2699606.96
56.20		24.69		2699650.08
56.21		24.69		2699771.72
56.22		24.69		2699804.29
56.23		24.69		2699978.43
56.23		24.69		2700065.54
56.24		24.69		2700334.53
56.25		24.69		2700489.53
56.26		24.69		2700838.11
56.26		24.68		2701028.06
56.28		24.68		2701426.44
56.28		24.68		2701642.97
56.29		24.68		2702109.42
56.30		24.68		2702396.71
56.31		24.68		2702983.67
56.31		24.67		2703403.35
56.33		24.67		2704185.78
56.34		24.67		2704980.75
56.34		24.66		2705785.37
56.35		24.66		2706576.65
56.36		24.66		2707320.10
56.37		24.65		2707983.65
56.38		24.65		2708496.53
56.39		24.65		2708930.51
56.39		24.65		2709167.02
56.40		24.65		2709352.65
56.41		24.65		2709328.52
56.42		24.65		2709273.20
56.42		24.65		2708980.35
56.44		24.65		2708720.76
56.44		24.65		2708262.82
56.45		24.65		2707908.40
56.46		24.66		2707376.49
56.47		24.66		2706960.01
56.47		24.66		2706341.12
56.49		24.66		2705895.56
56.49		24.67		2705224.47
56.50		24.67		2704799.03
56.50		24.67		2704168.58
56.52		24.67		2703821.53
56.52		24.67		2703294.27
56.54		24.67		2703121.57
56.54		24.68		2702949.91
56.55		24.68		2702779.03
56.56		24.68		2702559.45
56.57		24.68		2702260.52
56.58		24.68		2701918.97
56.58		24.68		2701481.30
56.59		24.68		2701040.49
56.60		24.69		2700505.36
56.61		24.69		2700026.49
56.62		24.69		2699462.41
56.63		24.69		2699012.16
56.63		24.70		2698477.33
56.64		24.70		2698101.39
56.65		24.70		2697629.35
56.66		24.70		2697346.20
56.66		24.70		2696941.82
56.68		24.70		2696746.08
56.68		24.71		2696402.25
56.69		24.71		2696296.81
56.70		24.71		2696030.33
56.71		24.71		2696084.18
56.71		24.71		2695993.99
56.73		24.71		2696294.96
56.74		24.70		2696632.73
56.74		24.70		2697001.94
56.75		24.70		2697387.41
56.76		24.70		2697738.17
56.77		24.70		2698075.83
56.78		24.70		2698305.69
56.79		24.70		2698488.83
56.79		24.70		2698496.57
56.80		24.70		2698451.37
56.81		24.70		2698209.88
56.82		24.70		2698026.17
56.82		24.70		2697732.49
56.83		24.70		2697589.00
56.84		24.70		2697353.94
56.85		24.70		2697324.61
56.86		24.70		2697201.12
56.87		24.70		2697321.39
56.87		24.70		2697326.48
56.89		24.70		2697574.67
56.89		24.70		2697663.94
56.90		24.70		2697972.98
56.90		24.70		2698076.84
56.92		24.70		2698449.82
56.92		24.70		2698641.20
56.94		24.69		2699180.12
56.94		24.69		2699722.80
56.95		24.69		2700263.35
56.96		24.69		2700812.39
56.97		24.68		2701309.91
56.98		24.68		2701787.28
56.98		24.68		2702135.32
56.99		24.68		2702443.35
57.00		24.68		2702577.74
57.01		24.68		2702706.42
57.02		24.68		2702672.33
57.03		24.68		2702710.45
57.03		24.68		2702611.69
57.04		24.68		2702650.78
57.05		24.68		2702556.24
57.06		24.68		2702634.02
57.06		24.68		2702546.38
57.08		24.68		2702651.27
57.08		24.68		2702552.46
57.09		24.68		2702649.92
57.10		24.68		2702520.52
57.11		24.68		2702628.34
57.11		24.68		2702514.60
57.13		24.68		2702703.48
57.13		24.68		2702695.73
57.14		24.68		2703018.02
57.15		24.67		2703322.64
57.16		24.67		2703599.29
57.17		24.67		2703852.27
57.18		24.67		2704026.91
57.19		24.67		2704165.23
57.19		24.67		2704164.91
57.20		24.67		2704127.41
57.21		24.67		2703931.46
57.22		24.67		2703725.98
57.22		24.67		2703371.61
57.23		24.67		2703072.25
57.24		24.68		2702640.74
57.25		24.68		2702312.05
57.26		24.68		2701833.75
57.27		24.68		2701493.56
57.27		24.68		2700977.73
57.29		24.69		2700727.35
57.29		24.69		2700285.70
57.30		24.69		2700128.75
57.30		24.69		2699782.66
57.32		24.69		2699740.21
57.32		24.69		2699509.80
57.34		24.69		2699629.29
57.34		24.69		2699718.66
57.35		24.69		2699811.46
57.36		24.69		2699930.94
57.37		24.69		2700059.22
57.38		24.69		2700208.23
57.38		24.69		2700278.01
57.39		24.69		2700372.56
57.40		24.69		2700366.33
57.41		24.69		2700398.91
57.42		24.69		2700323.16
57.43		24.69		2700358.32
57.43		24.69		2700278.82
57.44		24.69		2700339.18
57.45		24.69		2700265.79
57.46		24.69		2700323.04
57.46		24.69		2700210.06
57.48		24.69		2700243.62
57.48		24.69		2700085.80
57.49		24.69		2700117.10
57.50		24.69		2699957.41
57.51		24.69		2700044.23
57.51		24.69		2699953.13
57.53		24.69		2700164.12
57.54		24.69		2700365.16
57.54		24.69		2700560.00
57.55		24.69		2700733.48
57.56		24.69		2700864.54
57.57		24.68		2700936.83
57.58		24.68		2700926.58
57.58		24.68		2700870.69
57.59		24.69		2700724.13
57.60		24.69		2700582.49
57.61		24.69		2700355.75
57.62		24.69		2700184.23
57.62		24.69		2699896.57
57.63		24.69		2699736.58
57.64		24.69		2699442.50
57.65		24.69		2699302.42
57.66		24.69		2699012.85
57.67		24.69		2698869.33
57.67		24.70		2698558.79
57.69		24.70		2698438.00
57.69		24.70		2698143.35
57.70		24.70		2698126.21
57.70		24.70		2697952.91
57.72		24.70		2698125.21
57.72		24.70		2698161.25
57.74		24.70		2698610.43
57.74		24.69		2699103.74
57.75		24.69		2699643.98
57.76		24.69		2700209.19
57.77		24.69		2700765.03
57.78		24.68		2701308.01
57.78		24.68		2701707.35
57.79		24.68		2702061.78
57.80		24.68		2702244.36
57.81		24.68		2702435.19
57.82		24.68		2702497.42
57.83		24.68		2702627.75
57.83		24.68		2702645.08
57.84		24.68		2702774.28
57.85		24.68		2702763.68
57.86		24.68		2702869.63
57.86		24.68		2702789.14
57.88		24.68		2702836.79
57.88		24.68		2702672.82
57.89		24.68		2702675.30
57.90		24.68		2702460.70
57.91		24.68		2702501.13
57.91		24.68		2702340.51
57.93		24.68		2702501.72
57.94		24.68		2702641.33
57.94		24.68		2702763.91
57.95		24.68		2702861.59
57.96		24.68		2702901.86
57.97		24.68		2702901.15
57.98		24.68		2702788.99
57.98		24.68		2702649.33
57.99		24.68		2702389.44
58.00		24.68		2702164.41
58.01		24.68		2701838.46
58.02		24.68		2701612.39
58.02		24.68		2701288.17
58.04		24.68		2701096.19
58.04		24.69		2700770.61
58.05		24.69		2700591.77
58.06		24.69		2700239.97
58.07		24.69		2700035.33
58.07		24.69		2699629.69
58.09		24.69		2699424.14
58.09		24.69		2699022.19
58.10		24.69		2698865.09
58.10		24.70		2698535.81
58.12		24.70		2698483.70
58.12		24.70		2698275.86
58.13		24.70		2698406.77
58.14		24.70		2698395.39
58.15		24.69		2698765.44
58.16		24.69		2699178.88
58.17		24.69		2699601.49
58.18		24.69		2700098.47
58.18		24.69		2700569.62
58.19		24.68		2701120.18
58.20		24.68		2701595.32
58.21		24.68		2702147.41
58.22		24.68		2702586.14
58.23		24.67		2703129.33
58.23		24.67		2703574.14
58.24		24.67		2704116.12
58.25		24.67		2704513.26
58.26		24.67		2705061.93
58.26		24.66		2705428.87
58.28		24.66		2705908.01
58.28		24.66		2706156.21
58.29		24.66		2706525.06
58.30		24.66		2706633.28
58.31		24.66		2706885.04
58.31		24.66		2706857.08
58.33		24.66		2707068.97
58.33		24.66		2707167.20
58.34		24.66		2707157.34
58.35		24.66		2707040.83
58.36		24.66		2706809.68
58.37		24.66		2706462.14
58.38		24.66		2705978.03
58.39		24.66		2705397.83
58.39		24.67		2704676.54
58.40		24.67		2703917.86
58.41		24.68		2703041.75
58.42		24.68		2702203.73
58.42		24.68		2701264.70
58.43		24.69		2700417.74
58.44		24.69		2699469.05
58.45		24.70		2698652.74
58.46		24.70		2697720.84
58.47		24.70		2696954.10
58.47		24.71		2696059.70
58.49		24.71		2695379.26
58.49		24.71		2694553.66
58.50		24.72		2694034.41
58.50		24.72		2693383.96
58.52		24.72		2693119.89
58.52		24.72		2692792.87
58.53		24.72		2692949.28
58.54		24.72		2693223.32
58.55		24.72		2693594.70
58.56		24.72		2694040.88
58.57		24.71		2694492.39
58.58		24.71		2694969.13
58.58		24.71		2695377.09
58.59		24.71		2695788.22
58.60		24.71		2696081.60
58.61		24.71		2696436.49
58.62		24.70		2696695.69
58.63		24.70		2697030.14
58.63		24.70		2697244.54
58.64		24.70		2697605.51
58.65		24.70		2697833.76
58.66		24.70		2698237.67
58.66		24.70		2698511.42
58.68		24.69		2698960.24
58.68		24.69		2699261.69
58.69		24.69		2699747.64
58.70		24.69		2700053.84
58.71		24.69		2700563.95
58.71		24.68		2700871.23
58.73		24.68		2701436.82
58.73		24.68		2701802.33
58.74		24.68		2702481.02
58.75		24.67		2703130.56
58.76		24.67		2703751.23
58.77		24.67		2704336.30
58.78		24.67		2704853.45
58.78		24.66		2705309.27
58.79		24.66		2705632.37
58.80		24.66		2705887.06
58.81		24.66		2705969.82
58.82		24.66		2706014.05
58.82		24.66		2705856.01
58.83		24.66		2705749.74
58.84		24.66		2705444.81
58.85		24.67		2705237.33
58.86		24.67		2704820.83
58.87		24.67		2704530.68
58.87		24.67		2704018.77
58.89		24.67		2703648.23
58.89		24.68		2703041.48
58.90		24.68		2702638.38
58.90		24.68		2702018.76
58.92		24.68		2701632.55
58.92		24.68		2701053.30
58.93		24.69		2700807.65
58.94		24.69		2700561.61
58.95		24.69		2700318.54
58.96		24.69		2700082.82
58.97		24.69		2699812.84
58.98		24.69		2699549.48
58.98		24.69		2699200.03
58.99		24.69		2698879.37
59.00		24.70		2698461.90
59.01		24.70		2698114.12
59.02		24.70		2697676.93
59.03		24.70		2697367.95
59.03		24.70		2696976.27
59.04		24.70		2696756.37
59.05		24.71		2696441.08
59.06		24.71		2696325.46
59.06		24.71		2696084.15
59.08		24.71		2696078.42
59.08		24.71		2695922.95
59.09		24.71		2696030.57
59.10		24.71		2695972.40
59.11		24.71		2696208.84
59.11		24.71		2696275.58
59.13		24.70		2696694.49
59.13		24.70		2697114.90
59.14		24.70		2697536.62
59.15		24.70		2697950.84
59.16		24.70		2698316.92
59.17		24.70		2698663.54
59.18		24.69		2698915.56
59.18		24.69		2699165.76
59.19		24.69		2699311.90
59.20		24.69		2699511.83
59.21		24.69		2699641.84
59.22		24.69		2699848.20
59.22		24.69		2699957.53
59.23		24.69		2700210.03
59.28		24.67		2705131.38
59.29		24.64		2710356.30
59.29		24.62		2715990.22
59.30		24.59		2722441.17
59.30		24.56		2729059.27
59.32		24.53		2735954.19
59.32		24.50		2742549.86
59.33		24.47		2748995.15
59.34		24.44		2754644.84
59.35		24.42		2759439.14
59.36		24.40		2763464.40
59.37		24.39		2766821.33
59.38		24.38		2769651.83
59.38		24.37		2771917.55
59.39		24.36		2773791.23
59.40		24.35		2775176.19
59.41		24.35		2776084.08
59.42		24.35		2776080.62
59.43		24.35		2775401.62
59.43		24.36		2773882.96
59.44		24.37		2771881.38
59.45		24.38		2769081.52
59.46		24.39		2765814.50
59.46		24.41		2761752.76
59.48		24.43		2757253.03
59.48		24.45		2752070.67
59.49		24.48		2746609.59
59.50		24.51		2740420.94
59.51		24.54		2733847.20
59.51		24.57		2726408.59
59.53		24.60		2718810.81
59.53		24.64		2710915.51
59.54		24.67		2703157.39
59.55		24.71		2695913.17
59.56		24.74		2689551.58
59.57		24.76		2684197.69
59.58		24.78		2679513.14
59.59		24.80		2675185.42
59.59		24.82		2670845.84
59.60		24.84		2666507.22
59.61		24.86		2662045.52
59.62		24.88		2657778.83
59.62		24.90		2653579.98
59.63		24.92		2649665.29
59.64		24.94		2645802.57
59.65		24.96		2642255.31
59.66		24.97		2638755.51
59.67		24.99		2635571.30
59.67		25.00		2632421.55
59.68		25.02		2629621.39
59.69		25.03		2626836.89
59.70		25.04		2624472.32
59.70		25.05		2622115.41
59.72		25.06		2620208.76
59.72		25.07		2618063.91
59.73		25.08		2616113.29
59.74		25.09		2614073.23
59.75		25.10		2612069.00
59.76		25.11		2610287.13
59.77		25.12		2608775.49
59.78		25.12		2608067.77
59.78		25.12		2608293.46
59.79		25.11		2609347.61
59.80		25.11		2610784.68
59.81		25.10		2612566.16
59.82		25.09		2614517.95
59.83		25.08		2616883.38
59.83		25.07		2619388.74
59.84		25.05		2622570.49
59.85		25.03		2626182.82
59.86		25.01		2630417.90
59.86		24.99		2634851.50
59.88		24.97		2639772.37
59.88		24.95		2644792.41
59.89		24.92		2650316.17
59.90		24.89		2655961.89
59.91		24.86		2662004.78
59.91		24.84		2667737.99
59.93		24.81		2673646.33
59.93		24.78		2679555.65
59.94		24.75		2686281.24
59.95		24.72		2693641.24
59.96		24.68		2701379.09
59.97		24.65		2709236.04
59.98		24.61		2716852.09
59.98		24.58		2724373.21
59.99		24.55		2731706.84
